NAFC_Y2K_HEADER
20390090  49 41.00 -050  1.00 2001-11-23 15:27 0587 S0277 069 V   BB-11        1
20390090 002415  8.00 A 09 #PTCSMOFL-----------            D 000 0000 0597 000 4
20390090                                                                       8
-- CHANNEL STATS -->
# span     scan =     10.000, 17371.000
# span     pres =      1.744,   597.039
# span     temp =      2.467,     4.536
# span     cond =      2.988,     3.277
# span      sal =     33.381,    34.862
# span     sigt =     26.638,    27.688
# span      oxy =      7.140,     8.361
# span     flor =     -0.005,     0.260
# span      par =      1.437,   614.100
-- END --
-- HISTORY --> Tue May  9 14:42:35 2006
>SELECT_PROBE S
>READ # (DP) T C S O F L  scan pres temp cond sal oxy flor par
>/* STABILIZE_RESTRICT USING= pres 25.0 5 */
>RESTRICT USING= pres 0.0 4000.0
>RESTRICT USING= cond 2.0 5.0
>RESTRICT USING= temp -2.0 20.0
>MEDIANFILTER pres 21 1
>MEDIANFILTER temp 21 1
>MEDIANFILTER cond 21 1
>MEDIANFILTER flor 21 1
>MEDIANFILTER oxy 21 1
>MEDIANFILTER par 21 1
>SELECT_DN USING= pres
>/*
>SALINITY PRESSURE=pres CONDUCTIVITY=cond TEMPERATURE=temp RESULT=sal
>RESTRICT USING= sal 26.0 37.0
>*/
>MEDIANFILTER sal 21 1
>SIGMAT SALINITY=sal TEMPERATURE=temp RESULT=sigt
>MEDIANFILTER sigt 21 1
>HISTORY_ON
>WRITEFILE .p???? scan pres temp cond sal sigt oxy flor par
-- END --
 scan     pres     temp     cond      sal     sigt      oxy     flor      par 
-- DATA --
   10    1.744    2.467    2.988   33.381   26.638    8.357    0.121  607.200 
   42    1.960    2.468    2.988   33.381   26.638    8.361    0.124  614.100 
   57    2.110    2.468    2.988   33.381   26.638    8.358    0.126  610.900 
  246    2.251    2.473    2.989   33.384   26.640    8.356    0.124  566.900 
  621    2.449    2.473    2.989   33.386   26.641    8.341    0.131  426.200 
  624    2.530    2.473    2.989   33.386   26.641    8.341    0.130  395.000 
  627    2.622    2.474    2.989   33.387   26.642    8.340    0.130  369.000 
  633    2.780    2.474    2.989   33.387   26.642    8.340    0.130  371.400 
  641    2.998    2.474    2.989   33.387   26.642    8.343    0.128  385.700 
  645    3.120    2.475    2.989   33.388   26.643    8.343    0.128  419.000 
  649    3.327    2.473    2.989   33.385   26.641    8.345    0.125  389.500 
  652    3.453    2.473    2.989   33.386   26.641    8.345    0.125  385.700 
  656    3.588    2.473    2.989   33.386   26.641    8.345    0.125  371.400 
  661    3.780    2.473    2.989   33.386   26.641    8.345    0.125  369.000 
  665    4.000    2.473    2.989   33.386   26.641    8.345    0.126  347.800 
  668    4.124    2.473    2.989   33.386   26.641    8.346    0.126  329.900 
  671    4.267    2.473    2.989   33.385   26.641    8.346    0.126  315.100 
  674    4.435    2.473    2.989   33.385   26.641    8.347    0.126  312.800 
  677    4.579    2.472    2.989   33.385   26.641    8.347    0.126  308.200 
  680    4.734    2.472    2.989   33.385   26.641    8.347    0.126  298.500 
  685    5.016    2.472    2.989   33.385   26.641    8.347    0.126  298.500 
  689    5.204    2.472    2.989   33.385   26.641    8.348    0.126  289.500 
  695    5.548    2.472    2.989   33.385   26.641    8.348    0.126  263.200 
  699    5.762    2.472    2.989   33.385   26.641    8.349    0.126  238.800 
  705    6.123    2.472    2.989   33.385   26.641    8.349    0.128  235.700 
  708    6.268    2.472    2.989   33.385   26.641    8.349    0.129  222.000 
  714    6.563    2.472    2.989   33.385   26.641    8.349    0.129  221.200 
  718    6.796    2.472    2.989   33.385   26.641    8.349    0.130  221.200 
  721    6.924    2.473    2.989   33.385   26.641    8.350    0.130  219.400 
  730    7.298    2.473    2.989   33.386   26.641    8.350    0.131  219.000 
  740    7.629    2.474    2.989   33.386   26.641    8.350    0.133  213.400 
  744    7.735    2.475    2.989   33.387   26.642    8.350    0.133  210.000 
  751    7.881    2.475    2.990   33.389   26.644    8.350    0.134  209.000 
  776    8.207    2.477    2.990   33.389   26.644    8.350    0.141  202.900 
  791    8.378    2.480    2.990   33.390   26.644    8.349    0.142  197.200 
  797    8.470    2.482    2.991   33.394   26.647    8.348    0.143  196.000 
  803    8.583    2.486    2.991   33.395   26.648    8.347    0.144  192.000 
  807    8.688    2.491    2.992   33.398   26.649    8.346    0.145  189.400 
  810    8.756    2.494    2.992   33.398   26.650    8.345    0.145  188.700 
  813    8.861    2.496    2.992   33.400   26.651    8.345    0.145  186.400 
  816    8.942    2.497    2.993   33.400   26.651    8.344    0.145  184.100 
  822    9.162    2.499    2.993   33.402   26.652    8.343    0.146  183.200 
  828    9.425    2.500    2.993   33.403   26.653    8.342    0.148  176.500 
  832    9.602    2.500    2.993   33.404   26.654    8.341    0.151  175.200 
  836    9.784    2.502    2.994   33.405   26.654    8.341    0.158  172.900 
  839    9.940    2.504    2.994   33.406   26.655    8.341    0.160  170.300 
  842   10.072    2.506    2.994   33.407   26.656    8.341    0.160  167.200 
  845   10.222    2.506    2.994   33.407   26.656    8.341    0.160  161.900 
  852   10.597    2.507    2.994   33.407   26.656    8.341    0.163  150.200 
  857   10.850    2.508    2.994   33.408   26.656    8.341    0.163  140.500 
  860   10.978    2.508    2.994   33.408   26.656    8.341    0.163  134.600 
  863   11.146    2.508    2.994   33.408   26.656    8.341    0.164  130.800 
  866   11.285    2.508    2.994   33.408   26.656    8.341    0.166  128.100 
  869   11.443    2.508    2.994   33.408   26.656    8.341    0.167  124.800 
  872   11.557    2.508    2.994   33.408   26.656    8.341    0.169  121.900 
  876   11.738    2.508    2.994   33.408   26.656    8.341    0.169  119.300 
  882   12.009    2.508    2.994   33.408   26.656    8.342    0.170  114.900 
  885   12.131    2.508    2.994   33.408   26.656    8.342    0.170  113.000 
  890   12.319    2.508    2.994   33.408   26.656    8.343    0.170  111.000 
  893   12.430    2.508    2.994   33.408   26.656    8.343    0.171  110.200 
  900   12.648    2.508    2.994   33.408   26.656    8.343    0.171  106.200 
  906   12.821    2.508    2.994   33.408   26.656    8.343    0.172  105.700 
  915   13.058    2.508    2.994   33.408   26.656    8.343    0.172  104.900 
  924   13.263    2.508    2.994   33.408   26.656    8.343    0.173  104.800 
  933   13.456    2.508    2.994   33.408   26.656    8.343    0.174  104.500 
  942   13.654    2.508    2.994   33.408   26.656    8.343    0.175  104.500 
  953   13.973    2.509    2.994   33.408   26.656    8.343    0.177  104.500 
  961   14.237    2.509    2.994   33.408   26.656    8.342    0.181   98.540 
  965   14.355    2.509    2.994   33.408   26.656    8.342    0.184   94.720 
  977   14.797    2.515    2.995   33.412   26.659    8.340    0.193   88.830 
  981   14.996    2.515    2.995   33.412   26.659    8.340    0.196   87.530 
  984   15.120    2.516    2.996   33.412   26.659    8.340    0.198   86.460 
  987   15.246    2.516    2.996   33.413   26.660    8.339    0.199   85.500 
  995   15.575    2.517    2.996   33.413   26.660    8.339    0.202   83.830 
 1002   15.861    2.517    2.996   33.413   26.660    8.338    0.205   83.630 
 1009   16.143    2.518    2.996   33.414   26.660    8.338    0.207   82.300 
 1020   16.483    2.519    2.996   33.414   26.660    8.338    0.220   78.730 
 1033   16.882    2.519    2.996   33.415   26.661    8.338    0.220   69.320 
 1041   17.059    2.519    2.996   33.415   26.661    8.338    0.221   64.310 
 1047   17.203    2.520    2.996   33.415   26.661    8.337    0.222   61.370 
 1053   17.335    2.520    2.996   33.415   26.661    8.337    0.222   58.640 
 1061   17.493    2.520    2.996   33.415   26.661    8.336    0.222   56.300 
 1070   17.720    2.520    2.996   33.415   26.661    8.336    0.222   55.330 
 1074   17.828    2.520    2.996   33.416   26.662    8.336    0.223   55.130 
 1079   17.984    2.520    2.996   33.416   26.662    8.336    0.223   55.130 
 1086   18.234    2.521    2.996   33.416   26.662    8.336    0.224   54.860 
 1093   18.499    2.523    2.997   33.417   26.662    8.335    0.224   54.650 
 1098   18.721    2.524    2.997   33.417   26.662    8.335    0.224   54.380 
 1102   18.892    2.524    2.997   33.417   26.662    8.335    0.224   53.980 
 1109   19.251    2.524    2.997   33.418   26.663    8.335    0.224   52.540 
 1113   19.465    2.525    2.997   33.418   26.663    8.335    0.225   51.260 
 1117   19.659    2.525    2.997   33.418   26.663    8.335    0.225   49.770 
 1121   19.879    2.525    2.997   33.418   26.663    8.335    0.226   47.610 
 1130   20.332    2.525    2.997   33.418   26.663    8.335    0.229   44.500 
 1136   20.614    2.525    2.997   33.418   26.663    8.335    0.233   42.870 
 1143   20.943    2.525    2.997   33.418   26.663    8.336    0.239   42.500 
 1151   21.240    2.525    2.997   33.419   26.664    8.336    0.243   42.340 
 1155   21.375    2.526    2.997   33.419   26.664    8.337    0.244   42.290 
 1162   21.555    2.526    2.997   33.419   26.664    8.337    0.248   42.080 
 1178   21.913    2.526    2.997   33.419   26.664    8.338    0.249   41.170 
 1200   22.266    2.526    2.997   33.419   26.664    8.338    0.249   37.720 
 1215   22.595    2.526    2.997   33.419   26.664    8.338    0.252   35.900 
 1223   22.821    2.526    2.997   33.419   26.664    8.338    0.254   34.760 
 1232   23.112    2.526    2.997   33.419   26.664    8.339    0.254   33.920 
 1239   23.409    2.527    2.997   33.420   26.664    8.341    0.258   32.770 
 1247   23.732    2.529    2.998   33.422   26.666    8.341    0.260   31.730 
 1253   24.020    2.533    2.998   33.423   26.666    8.344    0.260   31.000 
 1257   24.187    2.534    2.998   33.423   26.666    8.345    0.260   30.390 
 1264   24.531    2.534    2.998   33.424   26.667    8.348    0.260   29.760 
 1271   24.849    2.536    2.999   33.425   26.667    8.348    0.260   28.580 
 1277   25.146    2.537    2.999   33.425   26.667    8.348    0.260   28.190 
 1280   25.281    2.537    2.999   33.425   26.667    8.348    0.260   27.510 
 1286   25.554    2.537    2.999   33.425   26.667    8.348    0.260   26.600 
 1291   25.772    2.538    2.999   33.425   26.667    8.348    0.260   25.610 
 1300   26.101    2.539    2.999   33.425   26.668    8.348    0.260   24.470 
 1307   26.400    2.539    2.999   33.426   26.668    8.348    0.260   23.380 
 1321   26.838    2.539    2.999   33.426   26.668    8.348    0.258   21.840 
 1359   27.588    2.558    3.002   33.436   26.675    8.348    0.255   20.490 
 1409   28.622    2.604    3.007   33.454   26.685    8.348    0.254   19.530 
 1420   29.067    2.611    3.008   33.459   26.688    8.346    0.251   18.450 
 1424   29.218    2.625    3.010   33.463   26.691    8.343    0.249   18.130 
 1430   29.562    2.638    3.011   33.468   26.693    8.340    0.246   17.300 
 1434   29.750    2.640    3.011   33.468   26.693    8.338    0.246   16.800 
 1440   30.112    2.641    3.011   33.468   26.693    8.337    0.246   16.090 
 1446   30.424    2.647    3.012   33.474   26.698    8.336    0.246   15.570 
 1454   30.926    2.695    3.018   33.495   26.709    8.319    0.245   14.740 
 1457   31.088    2.704    3.019   33.495   26.710    8.319    0.245   14.520 
 1460   31.270    2.704    3.019   33.496   26.710    8.319    0.245   14.270 
 1467   31.650    2.704    3.019   33.496   26.710    8.319    0.244   13.870 
 1470   31.817    2.704    3.019   33.496   26.710    8.319    0.244   13.760 
 1473   31.958    2.704    3.019   33.496   26.710    8.319    0.244   13.620 
 1478   32.214    2.708    3.019   33.496   26.710    8.319    0.243   13.350 
 1482   32.366    2.709    3.019   33.496   26.710    8.319    0.243   13.270 
 1486   32.544    2.709    3.020   33.496   26.710    8.319    0.243   13.130 
 1492   32.757    2.710    3.020   33.497   26.711    8.319    0.242   12.920 
 1564   33.860    2.710    3.020   33.498   26.711    8.319    0.233   11.460 
 1580   34.225    2.710    3.020   33.498   26.711    8.343    0.232   11.050 
 1590   34.597    2.710    3.020   33.498   26.711    8.345    0.231   10.620 
 1599   34.984    2.710    3.020   33.499   26.712    8.349    0.231   10.050 
 1604   35.172    2.710    3.020   33.500   26.713    8.349    0.231    9.705 
 1609   35.441    2.710    3.020   33.515   26.725    8.349    0.230    9.538 
 1623   36.057    2.710    3.022   33.523   26.731    8.349    0.229    8.849 
 1630   36.380    2.710    3.022   33.526   26.733    8.349    0.229    8.463 
 1634   36.563    2.711    3.023   33.528   26.734    8.349    0.227    8.411 
 1637   36.709    2.735    3.024   33.528   26.735    8.349    0.224    8.146 
 1644   36.974    2.739    3.025   33.535   26.738    8.349    0.218    8.006 
 1649   37.162    2.741    3.025   33.539   26.741    8.349    0.215    7.773 
 1658   37.493    2.745    3.025   33.544   26.745    8.345    0.209    7.556 
 1667   37.797    2.754    3.031   33.584   26.769    8.343    0.203    7.436 
 1679   38.171    2.853    3.039   33.585   26.769    8.314    0.193    7.363 
 1685   38.324    2.863    3.040   33.587   26.775    8.306    0.187    7.281 
 1692   38.547    2.880    3.043   33.596   26.776    8.302    0.183    7.263 
 1701   38.778    2.926    3.048   33.604   26.777    8.281    0.178    7.246 
 1711   39.134    2.936    3.048   33.607   26.779    8.258    0.172    7.246 
 1720   39.423    2.936    3.049   33.610   26.781    8.251    0.169    7.174 
 1729   39.763    2.942    3.049   33.611   26.781    8.240    0.168    7.043 
 1735   40.000    2.969    3.054   33.620   26.786    8.223    0.167    7.000 
 1739   40.128    2.988    3.054   33.627   26.790    8.223    0.165    6.940 
 1743   40.329    2.988    3.054   33.631   26.793    8.223    0.163    6.855 
 1747   40.498    2.996    3.055   33.636   26.797    8.220    0.162    6.679 
 1756   40.862    3.034    3.060   33.650   26.804    8.219    0.155    6.535 
 1766   41.251    3.043    3.061   33.652   26.805    8.219    0.149    6.350 
 1771   41.445    3.047    3.062   33.654   26.807    8.215    0.147    6.173 
 1776   41.629    3.056    3.063   33.658   26.809    8.213    0.146    6.030 
 1784   41.913    3.080    3.066   33.665   26.812    8.210    0.140    5.898 
 1804   42.422    3.093    3.068   33.675   26.819    8.210    0.134    5.579 
 1814   42.623    3.099    3.068   33.677   26.820    8.208    0.134    5.437 
 1832   42.930    3.106    3.069   33.681   26.823    8.207    0.134    5.227 
 1860   43.574    3.119    3.071   33.688   26.826    8.206    0.133    4.981 
 1868   43.871    3.128    3.072   33.688   26.827    8.202    0.133    4.944 
 1874   44.087    3.130    3.072   33.689   26.827    8.196    0.133    4.842 
 1881   44.384    3.135    3.072   33.689   26.827    8.191    0.133    4.771 
 1885   44.576    3.135    3.072   33.691   26.828    8.182    0.133    4.689 
 1889   44.794    3.138    3.073   33.695   26.831    8.176    0.132    4.666 
 1893   44.935    3.147    3.075   33.698   26.833    8.172    0.132    4.649 
 1896   45.074    3.155    3.075   33.701   26.834    8.166    0.132    4.631 
 1899   45.218    3.156    3.075   33.702   26.835    8.165    0.132    4.552 
 1902   45.359    3.161    3.076   33.704   26.836    8.163    0.132    4.541 
 1906   45.562    3.173    3.077   33.706   26.837    8.163    0.132    4.507 
 1911   45.767    3.176    3.077   33.707   26.837    8.162    0.132    4.463 
 1915   45.936    3.200    3.081   33.714   26.840    8.158    0.132    4.463 
 1918   46.077    3.210    3.081   33.715   26.840    8.158    0.132    4.436 
 1921   46.190    3.212    3.081   33.717   26.842    8.157    0.132    4.382 
 1925   46.359    3.218    3.082   33.719   26.843    8.157    0.132    4.322 
 1931   46.579    3.225    3.083   33.723   26.845    8.157    0.132    4.285 
 1935   46.737    3.235    3.084   33.726   26.847    8.157    0.131    4.243 
 1941   46.938    3.256    3.086   33.729   26.847    8.157    0.131    4.191 
 1949   47.210    3.267    3.087   33.731   26.848    8.157    0.130    4.171 
 1958   47.490    3.300    3.091   33.739   26.851    8.157    0.129    4.099 
 1963   47.616    3.301    3.092   33.745   26.856    8.155    0.129    4.059 
 1969   47.819    3.303    3.092   33.746   26.857    8.152    0.129    4.014 
 1978   48.086    3.308    3.093   33.751   26.860    8.151    0.124    3.946 
 1986   48.319    3.310    3.093   33.754   26.862    8.150    0.121    3.883 
 1997   48.631    3.315    3.093   33.755   26.863    8.149    0.119    3.845 
 2004   48.868    3.328    3.096   33.768   26.871    8.146    0.117    3.826 
 2011   49.089    3.354    3.098   33.772   26.872    8.142    0.113    3.760 
 2018   49.309    3.365    3.099   33.772   26.872    8.139    0.112    3.696 
 2022   49.478    3.369    3.100   33.773   26.872    8.138    0.111    3.660 
 2025   49.574    3.371    3.100   33.773   26.872    8.135    0.111    3.646 
 2031   49.822    3.372    3.100   33.774   26.872    8.126    0.110    3.584 
 2042   50.170    3.403    3.105   33.792   26.884    8.124    0.109    3.510 
 2046   50.309    3.433    3.108   33.797   26.885    8.119    0.109    3.479 
 2051   50.544    3.442    3.108   33.799   26.886    8.119    0.108    3.428 
 2056   50.705    3.443    3.109   33.801   26.887    8.115    0.106    3.416 
 2063   50.985    3.445    3.109   33.802   26.888    8.115    0.105    3.361 
 2068   51.186    3.445    3.109   33.806   26.891    8.115    0.105    3.320 
 2072   51.299    3.445    3.109   33.806   26.891    8.115    0.105    3.271 
 2081   51.626    3.451    3.109   33.810   26.894    8.115    0.105    3.219 
 2087   51.831    3.451    3.110   33.816   26.898    8.103    0.105    3.160 
 2092   51.973    3.484    3.115   33.833   26.905    8.102    0.104    3.149 
 2099   52.174    3.531    3.119   33.838   26.908    8.100    0.103    3.118 
 2111   52.473    3.570    3.123   33.838   26.909    8.099    0.099    3.061 
 2131   52.879    3.598    3.126   33.850   26.911    8.095    0.096    2.990 
 2143   53.148    3.624    3.129   33.860   26.917    8.095    0.093    2.946 
 2159   53.525    3.639    3.131   33.867   26.921    8.094    0.090    2.906 
 2164   53.696    3.640    3.131   33.870   26.923    8.093    0.088    2.878 
 2169   53.869    3.640    3.132   33.872   26.925    8.090    0.088    2.867 
 2179   54.243    3.645    3.133   33.880   26.931    8.086    0.088    2.842 
 2194   54.842    3.715    3.141   33.904   26.943    8.085    0.084    2.790 
 2201   55.139    3.720    3.141   33.904   26.943    8.081    0.081    2.746 
 2208   55.485    3.726    3.142   33.906   26.943    8.078    0.081    2.726 
 2213   55.718    3.728    3.142   33.908   26.945    8.075    0.081    2.679 
 2221   56.065    3.735    3.143   33.912   26.947    8.065    0.081    2.646 
 2233   56.550    3.768    3.146   33.915   26.947    8.029    0.080    2.607 
 2237   56.719    3.772    3.148   33.923   26.953    8.015    0.080    2.572 
 2247   57.065    3.838    3.155   33.944   26.963    7.984    0.077    2.531 
 2263   57.600    3.943    3.165   33.958   26.963    7.945    0.074    2.485 
 2280   58.132    3.954    3.167   33.968   26.970    7.928    0.072    2.455 
 2299   58.774    4.025    3.175   33.988   26.979    7.906    0.072    2.439 
 2320   59.511    4.032    3.177   33.996   26.984    7.906    0.072    2.410 
 2326   59.762    4.035    3.178   34.004   26.990    7.906    0.069    2.374 
 2331   59.937    4.038    3.178   34.005   26.991    7.906    0.067    2.368 
 2334   60.078    4.041    3.179   34.006   26.991    7.906    0.067    2.357 
 2350   60.705    4.042    3.179   34.017   27.000    7.905    0.066    2.299 
