NAFC_Y2K_HEADER
20731047  48 55.00 -052 24.00 2006-11-25 21:40 0349 S0344 019 V   BB-04        1
20731047 001035  8.00 A 09 #PTCSMOFL-----------            D 000 0002 0346 000 4
20731047 6 30 25 01 1018.9 000.3 000.2 04 04 27 06 06                          8
-- CHANNEL STATS -->
# span     scan =    349.000, 10413.000
# span     pres =      2.106,   346.730
# span     temp =     -0.545,     2.845
# span     cond =      2.746,     3.099
# span      sal =     32.478,    34.463
# span     sigt =     25.886,    27.496
# span      oxy =      5.869,     7.628
# span     flor =     -0.005,     0.259
# span      par =      0.628,     0.987
-- END --
-- HISTORY --> Mon Dec 11 12:40:20 2006
>SELECT_PROBE S
>READ # (DP) T C S O F L  scan pres temp cond sal oxy flor par
>/* STABILIZE_RESTRICT USING= pres 25.0 5 */
>RESTRICT USING= pres 0.0 4000.0
>RESTRICT USING= cond 2.0 5.0
>RESTRICT USING= temp -2.0 20.0
>MEDIANFILTER pres 21 1
>MEDIANFILTER temp 21 1
>MEDIANFILTER cond 21 1
>MEDIANFILTER flor 21 1
>MEDIANFILTER oxy 21 1
>MEDIANFILTER par 21 1
>SELECT_DN USING= pres
>/*
>SALINITY PRESSURE=pres CONDUCTIVITY=cond TEMPERATURE=temp RESULT=sal
>RESTRICT USING= sal 26.0 37.0
>*/
>MEDIANFILTER sal 21 1
>SIGMAT SALINITY=sal TEMPERATURE=temp RESULT=sigt
>MEDIANFILTER sigt 21 1
>HISTORY_ON
>WRITEFILE .p???? scan pres temp cond sal sigt oxy flor par
-- END --
 scan     pres     temp     cond      sal     sigt      oxy     flor      par 
-- DATA --
  349    2.106    2.839    2.946   32.479   25.887    7.623    0.231    0.987 
  532    2.629    2.839    2.946   32.479   25.887    7.619    0.223    0.938 
  551    3.428    2.839    2.946   32.479   25.887    7.618    0.222    0.926 
  566    4.020    2.839    2.946   32.479   25.887    7.618    0.222    0.930 
  590    4.746    2.839    2.946   32.479   25.887    7.618    0.221    0.883 
  619    5.399    2.838    2.946   32.479   25.887    7.615    0.220    0.813 
  635    5.841    2.839    2.946   32.478   25.886    7.616    0.219    0.831 
  647    6.256    2.839    2.946   32.479   25.887    7.616    0.219    0.824 
  653    6.512    2.838    2.946   32.478   25.886    7.617    0.218    0.828 
  663    6.941    2.837    2.946   32.478   25.886    7.617    0.216    0.868 
  676    7.536    2.839    2.946   32.479   25.887    7.618    0.221    0.851 
  680    7.740    2.839    2.946   32.479   25.887    7.618    0.221    0.833 
  686    7.998    2.839    2.946   32.479   25.887    7.618    0.221    0.833 
  692    8.282    2.839    2.946   32.479   25.887    7.621    0.221    0.833 
  698    8.518    2.839    2.946   32.479   25.887    7.621    0.221    0.833 
  715    9.149    2.839    2.946   32.479   25.887    7.621    0.221    0.833 
  728    9.545    2.839    2.946   32.479   25.887    7.622    0.221    0.847 
  739    9.816    2.839    2.946   32.479   25.887    7.622    0.224    0.848 
  777   10.509    2.839    2.946   32.479   25.887    7.622    0.224    0.848 
  788   10.770    2.839    2.946   32.479   25.887    7.622    0.225    0.848 
  799   11.104    2.839    2.946   32.479   25.887    7.622    0.225    0.847 
  812   11.644    2.839    2.946   32.479   25.887    7.622    0.225    0.841 
  821   12.051    2.839    2.946   32.479   25.887    7.623    0.225    0.835 
  826   12.312    2.839    2.946   32.479   25.887    7.623    0.225    0.833 
  832   12.609    2.839    2.946   32.479   25.887    7.623    0.225    0.831 
  837   12.912    2.839    2.946   32.479   25.887    7.624    0.226    0.828 
  844   13.294    2.839    2.946   32.479   25.887    7.626    0.227    0.818 
  849   13.578    2.839    2.946   32.479   25.887    7.626    0.228    0.818 
  854   13.837    2.839    2.946   32.479   25.887    7.626    0.230    0.818 
  859   14.075    2.839    2.946   32.479   25.887    7.626    0.230    0.818 
  863   14.284    2.839    2.946   32.479   25.887    7.626    0.230    0.818 
  867   14.467    2.839    2.946   32.479   25.887    7.626    0.230    0.818 
  876   14.879    2.839    2.946   32.479   25.887    7.626    0.230    0.814 
  882   15.065    2.839    2.947   32.479   25.887    7.626    0.230    0.803 
  892   15.429    2.839    2.947   32.479   25.887    7.626    0.230    0.792 
  901   15.683    2.839    2.947   32.479   25.887    7.626    0.231    0.779 
  915   16.062    2.839    2.947   32.479   25.887    7.626    0.232    0.766 
  931   16.438    2.839    2.947   32.479   25.887    7.626    0.234    0.766 
  945   16.727    2.839    2.947   32.479   25.887    7.626    0.234    0.764 
  955   16.938    2.840    2.947   32.479   25.887    7.626    0.234    0.763 
  966   17.187    2.840    2.947   32.479   25.887    7.625    0.234    0.762 
  979   17.528    2.840    2.947   32.479   25.887    7.625    0.234    0.760 
  988   17.792    2.840    2.947   32.479   25.887    7.625    0.235    0.759 
  998   18.133    2.840    2.947   32.479   25.887    7.625    0.235    0.755 
 1010   18.578    2.840    2.947   32.479   25.887    7.625    0.235    0.752 
 1015   18.784    2.840    2.947   32.479   25.887    7.625    0.235    0.750 
 1018   18.894    2.840    2.947   32.479   25.887    7.625    0.235    0.747 
 1022   19.075    2.840    2.947   32.479   25.887    7.625    0.235    0.747 
 1029   19.314    2.840    2.947   32.479   25.887    7.625    0.235    0.747 
 1039   19.693    2.840    2.947   32.479   25.887    7.624    0.235    0.747 
 1045   19.934    2.840    2.947   32.479   25.887    7.624    0.235    0.747 
 1049   20.042    2.840    2.947   32.479   25.887    7.624    0.235    0.747 
 1053   20.178    2.840    2.947   32.479   25.887    7.624    0.236    0.747 
 1058   20.308    2.841    2.947   32.479   25.886    7.624    0.236    0.747 
 1064   20.489    2.841    2.947   32.479   25.886    7.624    0.236    0.747 
 1070   20.642    2.841    2.947   32.479   25.886    7.624    0.235    0.747 
 1077   20.816    2.841    2.947   32.479   25.886    7.624    0.235    0.747 
 1088   21.087    2.841    2.947   32.479   25.886    7.623    0.235    0.747 
 1098   21.350    2.841    2.947   32.479   25.886    7.623    0.235    0.747 
 1102   21.478    2.841    2.947   32.479   25.886    7.623    0.235    0.747 
 1109   21.687    2.841    2.947   32.479   25.886    7.623    0.235    0.747 
 1114   21.883    2.841    2.947   32.479   25.886    7.623    0.236    0.747 
 1118   22.018    2.841    2.947   32.479   25.886    7.623    0.236    0.747 
 1124   22.297    2.841    2.947   32.479   25.886    7.623    0.236    0.747 
 1133   22.669    2.841    2.947   32.479   25.886    7.623    0.236    0.747 
 1145   23.242    2.841    2.947   32.479   25.886    7.623    0.237    0.747 
 1155   23.744    2.841    2.947   32.479   25.886    7.623    0.237    0.747 
 1159   23.970    2.841    2.947   32.479   25.886    7.623    0.237    0.747 
 1164   24.224    2.841    2.947   32.479   25.886    7.623    0.237    0.747 
 1173   24.623    2.841    2.947   32.479   25.886    7.623    0.238    0.747 
 1178   24.877    2.841    2.947   32.479   25.886    7.623    0.238    0.747 
 1185   25.143    2.841    2.947   32.479   25.886    7.623    0.241    0.747 
 1193   25.460    2.841    2.947   32.479   25.886    7.623    0.242    0.747 
 1201   25.771    2.841    2.947   32.479   25.886    7.623    0.242    0.745 
 1204   25.869    2.841    2.947   32.479   25.886    7.623    0.242    0.743 
 1211   26.113    2.841    2.947   32.479   25.886    7.623    0.242    0.740 
 1216   26.291    2.841    2.947   32.479   25.886    7.623    0.242    0.736 
 1228   26.693    2.841    2.947   32.479   25.886    7.624    0.242    0.735 
 1247   27.248    2.841    2.947   32.479   25.886    7.625    0.244    0.725 
 1252   27.394    2.841    2.947   32.479   25.886    7.626    0.247    0.722 
 1258   27.545    2.841    2.947   32.479   25.886    7.626    0.249    0.721 
 1262   27.638    2.841    2.947   32.479   25.886    7.626    0.249    0.721 
 1266   27.741    2.841    2.947   32.479   25.886    7.626    0.249    0.721 
 1271   27.854    2.841    2.947   32.479   25.886    7.626    0.249    0.721 
 1274   27.934    2.841    2.947   32.479   25.886    7.626    0.249    0.721 
 1298   28.554    2.841    2.947   32.479   25.886    7.626    0.249    0.721 
 1311   28.914    2.841    2.947   32.479   25.886    7.626    0.249    0.720 
 1315   29.064    2.841    2.947   32.479   25.886    7.625    0.249    0.720 
 1318   29.162    2.841    2.947   32.479   25.886    7.625    0.249    0.719 
 1323   29.333    2.841    2.947   32.479   25.886    7.625    0.249    0.719 
 1333   29.715    2.841    2.947   32.479   25.886    7.625    0.250    0.719 
 1343   30.122    2.841    2.947   32.479   25.886    7.624    0.250    0.719 
 1347   30.278    2.841    2.947   32.479   25.886    7.624    0.251    0.719 
 1354   30.549    2.842    2.947   32.479   25.886    7.623    0.251    0.719 
 1358   30.718    2.842    2.947   32.479   25.886    7.623    0.252    0.719 
 1361   30.831    2.841    2.947   32.479   25.886    7.623    0.252    0.719 
 1364   30.941    2.841    2.947   32.479   25.886    7.623    0.252    0.719 
 1370   31.140    2.841    2.947   32.479   25.886    7.623    0.253    0.718 
 1378   31.456    2.841    2.947   32.479   25.886    7.622    0.253    0.718 
 1387   31.768    2.841    2.947   32.479   25.886    7.622    0.253    0.718 
 1392   31.946    2.841    2.947   32.479   25.886    7.622    0.253    0.718 
 1398   32.097    2.841    2.947   32.479   25.886    7.622    0.253    0.718 
 1405   32.349    2.841    2.947   32.479   25.886    7.622    0.253    0.718 
 1410   32.477    2.841    2.947   32.479   25.886    7.622    0.253    0.718 
 1414   32.618    2.841    2.947   32.479   25.886    7.622    0.253    0.718 
 1421   32.839    2.841    2.947   32.479   25.886    7.622    0.253    0.718 
 1429   33.110    2.841    2.947   32.479   25.886    7.622    0.253    0.718 
 1441   33.520    2.841    2.947   32.479   25.886    7.622    0.253    0.718 
 1451   33.917    2.841    2.947   32.479   25.886    7.622    0.250    0.718 
 1459   34.246    2.841    2.947   32.479   25.886    7.622    0.248    0.725 
 1465   34.580    2.841    2.947   32.479   25.886    7.622    0.248    0.736 
 1469   34.774    2.841    2.947   32.479   25.886    7.623    0.248    0.743 
 1473   34.972    2.841    2.947   32.479   25.886    7.624    0.248    0.751 
 1477   35.251    2.841    2.947   32.479   25.886    7.627    0.248    0.753 
 1481   35.510    2.841    2.947   32.479   25.886    7.628    0.248    0.753 
 1485   35.792    2.841    2.947   32.479   25.886    7.628    0.248    0.753 
 1488   35.968    2.841    2.947   32.479   25.886    7.628    0.248    0.753 
 1491   36.209    2.841    2.947   32.479   25.886    7.628    0.248    0.753 
 1495   36.501    2.841    2.947   32.479   25.886    7.628    0.248    0.753 
 1499   36.807    2.841    2.947   32.479   25.886    7.628    0.248    0.753 
 1502   37.066    2.841    2.948   32.479   25.886    7.628    0.248    0.753 
 1505   37.262    2.840    2.948   32.479   25.886    7.628    0.248    0.753 
 1508   37.496    2.841    2.948   32.479   25.886    7.628    0.248    0.753 
 1511   37.727    2.841    2.948   32.479   25.886    7.628    0.248    0.753 
 1514   37.923    2.841    2.948   32.479   25.886    7.628    0.249    0.749 
 1517   38.147    2.841    2.948   32.479   25.886    7.628    0.249    0.747 
 1520   38.323    2.842    2.948   32.479   25.887    7.628    0.250    0.743 
 1525   38.620    2.842    2.948   32.480   25.887    7.627    0.250    0.738 
 1541   39.215    2.843    2.948   32.480   25.887    7.627    0.250    0.729 
 1640   39.470    2.843    2.948   32.480   25.887    7.617    0.250    0.727 
 1652   39.998    2.844    2.948   32.481   25.887    7.617    0.251    0.727 
 1655   40.154    2.844    2.948   32.481   25.888    7.617    0.252    0.726 
 1658   40.332    2.844    2.948   32.481   25.888    7.616    0.252    0.725 
 1661   40.511    2.844    2.948   32.481   25.888    7.616    0.253    0.725 
 1665   40.780    2.844    2.948   32.481   25.888    7.616    0.255    0.724 
 1673   41.285    2.844    2.948   32.481   25.888    7.616    0.255    0.723 
 1679   41.730    2.843    2.948   32.481   25.888    7.616    0.257    0.719 
 1683   41.981    2.843    2.948   32.481   25.888    7.616    0.257    0.719 
 1686   42.192    2.843    2.948   32.480   25.888    7.616    0.257    0.718 
 1689   42.418    2.843    2.948   32.481   25.888    7.616    0.257    0.718 
 1692   42.632    2.844    2.948   32.481   25.888    7.616    0.257    0.718 
 1695   42.846    2.844    2.948   32.481   25.888    7.616    0.257    0.718 
 1701   43.273    2.844    2.948   32.481   25.888    7.616    0.257    0.718 
 1708   43.703    2.844    2.948   32.481   25.888    7.616    0.257    0.718 
 1715   44.105    2.844    2.948   32.481   25.888    7.617    0.257    0.718 
 1719   44.316    2.844    2.948   32.481   25.888    7.617    0.257    0.712 
 1726   44.632    2.844    2.948   32.481   25.888    7.618    0.257    0.711 
 1730   44.831    2.844    2.948   32.481   25.888    7.618    0.258    0.709 
 1738   45.135    2.843    2.948   32.481   25.888    7.618    0.258    0.701 
 1758   45.713    2.843    2.948   32.481   25.888    7.618    0.259    0.700 
 1788   46.373    2.843    2.948   32.481   25.888    7.618    0.259    0.700 
 1838   47.740    2.843    2.948   32.481   25.888    7.618    0.259    0.698 
 1857   48.466    2.843    2.948   32.481   25.888    7.618    0.259    0.696 
 1869   49.007    2.843    2.948   32.481   25.888    7.618    0.259    0.696 
 1878   49.416    2.843    2.949   32.481   25.888    7.618    0.258    0.694 
 1890   49.974    2.843    2.949   32.481   25.888    7.617    0.258    0.692 
 1898   50.316    2.843    2.949   32.481   25.888    7.616    0.257    0.692 
 1905   50.587    2.843    2.949   32.481   25.888    7.616    0.257    0.692 
 1920   51.153    2.843    2.949   32.481   25.888    7.616    0.257    0.692 
 1940   51.779    2.843    2.949   32.481   25.888    7.615    0.255    0.692 
 1961   52.271    2.843    2.949   32.482   25.889    7.614    0.254    0.693 
 1984   52.748    2.843    2.949   32.482   25.889    7.614    0.254    0.694 
 1997   52.977    2.843    2.949   32.482   25.889    7.614    0.254    0.694 
 2006   53.188    2.843    2.949   32.482   25.889    7.611    0.254    0.694 
 2028   53.871    2.843    2.949   32.483   25.889    7.611    0.254    0.694 
 2046   54.598    2.844    2.949   32.483   25.889    7.611    0.254    0.694 
 2054   54.965    2.844    2.949   32.483   25.890    7.611    0.254    0.694 
 2059   55.244    2.844    2.949   32.484   25.890    7.611    0.254    0.694 
 2062   55.359    2.845    2.949   32.484   25.890    7.611    0.253    0.696 
 2069   55.769    2.845    2.949   32.485   25.891    7.611    0.253    0.696 
 2075   56.098    2.845    2.949   32.485   25.891    7.611    0.252    0.700 
 2080   56.423    2.845    2.949   32.485   25.891    7.611    0.252    0.701 
 2087   56.780    2.845    2.949   32.485   25.891    7.611    0.251    0.701 
 2091   57.031    2.845    2.949   32.486   25.892    7.611    0.251    0.701 
 2094   57.242    2.845    2.949   32.486   25.892    7.611    0.251    0.701 
 2097   57.428    2.845    2.949   32.487   25.893    7.611    0.251    0.701 
 2100   57.609    2.845    2.949   32.487   25.893    7.611    0.252    0.701 
 2103   57.800    2.845    2.949   32.487   25.893    7.612    0.252    0.701 
 2106   58.006    2.845    2.950   32.488   25.893    7.612    0.252    0.701 
 2109   58.205    2.845    2.950   32.488   25.893    7.612    0.252    0.701 
 2116   58.660    2.844    2.950   32.489   25.894    7.612    0.252    0.701 
 2121   58.987    2.844    2.950   32.489   25.894    7.612    0.251    0.701 
 2127   59.379    2.843    2.950   32.490   25.895    7.612    0.251    0.701 
 2131   59.608    2.842    2.950   32.491   25.896    7.612    0.251    0.701 
 2134   59.794    2.842    2.950   32.491   25.896    7.612    0.251    0.700 
 2140   60.128    2.840    2.950   32.492   25.897    7.612    0.250    0.700 
 2144   60.329    2.840    2.950   32.492   25.897    7.611    0.249    0.696 
 2162   60.930    2.838    2.950   32.494   25.899    7.611    0.249    0.694 
 2236   61.263    2.838    2.950   32.494   25.899    7.585    0.244    0.694 
 2260   61.428    2.836    2.950   32.496   25.901    7.567    0.240    0.694 
 2267   61.635    2.836    2.950   32.496   25.901    7.560    0.237    0.694 
 2275   61.987    2.835    2.950   32.498   25.902    7.552    0.237    0.694 
 2283   62.341    2.834    2.950   32.500   25.904    7.543    0.235    0.694 
 2287   62.588    2.834    2.950   32.500   25.904    7.539    0.233    0.694 
 2291   62.791    2.833    2.950   32.501   25.905    7.533    0.231    0.694 
 2294   62.957    2.833    2.950   32.501   25.905    7.531    0.231    0.693 
 2298   63.204    2.832    2.950   32.502   25.906    7.526    0.230    0.693 
 2302   63.460    2.832    2.950   32.503   25.906    7.522    0.230    0.692 
 2305   63.666    2.821    2.950   32.521   25.922    7.520    0.230    0.692 
 2308   63.872    2.801    2.950   32.549   25.946    7.519    0.229    0.692 
 2312   64.114    2.786    2.950   32.567   25.961    7.515    0.228    0.692 
 2317   64.463    2.774    2.950   32.580   25.973    7.510    0.228    0.692 
 2321   64.768    2.769    2.950   32.584   25.976    7.502    0.227    0.692 
 2330   65.379    2.743    2.950   32.615   26.003    7.490    0.226    0.692 
 2334   65.680    2.723    2.950   32.627   26.015    7.487    0.224    0.692 
 2342   66.108    2.688    2.950   32.646   26.033    7.478    0.219    0.692 
 2346   66.292    2.680    2.950   32.651   26.037    7.472    0.213    0.692 
 2350   66.536    2.669    2.949   32.657   26.043    7.462    0.205    0.691 
 2356   66.782    2.649    2.949   32.671   26.056    7.453    0.192    0.688 
 2374   67.451    2.595    2.947   32.704   26.086    7.414    0.161    0.686 
 2399   68.120    2.543    2.944   32.721   26.104    7.398    0.135    0.685 
 2417   68.663    2.458    2.939   32.742   26.128    7.388    0.125    0.684 
 2423   68.846    2.418    2.936   32.750   26.137    7.380    0.124    0.683 
 2435   69.312    2.326    2.930   32.770   26.161    7.376    0.120    0.682 
 2441   69.518    2.290    2.927   32.777   26.169    7.370    0.120    0.681 
 2455   70.038    2.133    2.915   32.787   26.189    7.366    0.110    0.681 
 2469   70.541    1.992    2.905   32.810   26.218    7.365    0.094    0.681 
 2487   71.027    1.951    2.903   32.811   26.222    7.363    0.076    0.681 
 2499   71.288    1.934    2.901   32.816   26.227    7.362    0.066    0.681 
 2527   71.625    1.933    2.901   32.817   26.228    7.328    0.049    0.681 
 2547   71.904    1.923    2.900   32.818   26.229    7.289    0.044    0.681 
 2569   72.442    1.831    2.893   32.819   26.237    7.262    0.040    0.681 
 2589   73.151    1.697    2.883   32.833   26.258    7.246    0.039    0.681 
 2599   73.578    1.620    2.878   32.847   26.274    7.238    0.039    0.681 
 2605   73.860    1.593    2.876   32.849   26.278    7.236    0.038    0.681 
 2612   74.174    1.578    2.875   32.851   26.280    7.236    0.037    0.681 
 2621   74.624    1.572    2.874   32.852   26.281    7.236    0.037    0.681 
 2631   75.144    1.508    2.869   32.852   26.286    7.236    0.037    0.681 
 2635   75.313    1.468    2.865   32.853   26.289    7.236    0.036    0.681 
 2640   75.610    1.329    2.855   32.861   26.305    7.236    0.036    0.681 
 2644   75.816    1.235    2.849   32.886   26.331    7.236    0.035    0.681 
 2651   76.170    1.163    2.845   32.910   26.355    7.236    0.034    0.681 
 2657   76.505    1.135    2.843   32.913   26.359    7.236    0.034    0.681 
 2673   77.325    1.042    2.836   32.926   26.375    7.236    0.034    0.681 
