NAFC_Y2K_HEADER
39673016  51 45.48 -049  6.31 2006-06-14 08:25 3019 S0281 016 V   stn 16       1
39673016 002736  8.00 A 08 #PTCSMFL------------            D 000 0000 0506 000 4
39673016 4 31 03 02 1017.0 006.5 005.0 04 03 31 04 04                          8
-- CHANNEL STATS -->
# span     scan =   2524.000,  7419.000
# span     pres =      0.030,   506.373
# span     temp =      3.520,     7.283
# span     cond =      3.199,     3.498
# span      sal =     34.197,    34.868
# span     sigt =     26.747,    27.716
# span     flor =      0.231,     8.177
# span      par =      0.882,  2157.700
-- END --
-- HISTORY --> Thu Jun 22 14:23:10 2006
>SELECT_PROBE S
>READ # (DP) T C L F scan pres temp cond par flor
>STABILIZE_RESTRICT USING= pres 10.0 5 
>RESTRICT USING= pres 0.0 2000.0
>RESTRICT USING= cond 2.0 5.0
>RESTRICT USING= temp -2.0 20.0
>RESTRICT USING= scan 500.0 30000.0
>MEDIANFILTER pres 21 1
>MEDIANFILTER temp 21 1
>MEDIANFILTER cond 21 1
>MEDIANFILTER flor 21 1
>MEDIANFILTER par 21 1
>SELECT_DN USING= pres
>SALINITY PRESSURE=pres CONDUCTIVITY=cond TEMPERATURE=temp RESULT=sal
>RESTRICT USING= sal 29.0 36.0
>MEDIANFILTER sal 21 1
>SIGMAT SALINITY=sal TEMPERATURE=temp RESULT=sigt
>MEDIANFILTER sigt 21 1
>HISTORY_ON
>WRITEFILE .p???? scan pres temp cond sal sigt flor par
-- END --
 scan     pres     temp     cond      sal     sigt     flor      par 
-- DATA --
 2524    0.030    7.283    3.481   34.197   26.747    8.177 2157.700 
 2527    0.204    7.283    3.493   34.328   26.850    0.975  256.430 
 2528    0.378    7.283    3.498   34.382   26.893    3.089  208.470 
 2530    0.551    7.283    3.498   34.382   26.893    3.322  147.260 
 2532    0.725    7.283    3.498   34.382   26.893    1.486  133.270 
 2533    0.899    7.283    3.498   34.382   26.893    2.741  145.100 
 2535    1.072    7.282    3.498   34.383   26.894    2.787  190.060 
 2537    1.246    7.280    3.498   34.385   26.895    2.787  190.060 
 2538    1.420    7.280    3.498   34.385   26.895    2.834  179.140 
 2540    1.767    7.280    3.498   34.385   26.895    2.834  168.850 
 2541    1.941    7.280    3.498   34.385   26.895    2.834  168.850 
 2543    2.114    7.280    3.498   34.385   26.895    2.857  168.850 
 2545    2.288    7.279    3.498   34.385   26.895    2.857  164.540 
 2546    2.462    7.279    3.498   34.385   26.895    2.857  163.320 
 2550    2.635    7.279    3.498   34.385   26.895    2.857  160.920 
 2554    2.809    7.279    3.498   34.385   26.895    2.810  160.920 
 2561    2.982    7.280    3.498   34.385   26.895    2.717  155.080 
 2567    3.156    7.280    3.498   34.385   26.895    2.834  150.560 
 2570    3.330    7.279    3.498   34.385   26.896    2.950  141.910 
 2573    3.503    7.279    3.498   34.385   26.896    3.019  141.390 
 2574    3.677    7.279    3.498   34.385   26.896    3.112  139.310 
 2576    3.851    7.279    3.498   34.385   26.896    3.182  138.800 
 2578    4.024    7.279    3.498   34.385   26.896    3.345  135.750 
 2579    4.198    7.278    3.498   34.385   26.896    3.345  132.280 
 2581    4.372    7.278    3.498   34.385   26.896    3.391  129.860 
 2582    4.545    7.278    3.498   34.385   26.896    3.414  124.680 
 2583    4.719    7.278    3.498   34.385   26.896    3.484  118.830 
 2584    4.893    7.278    3.498   34.385   26.896    3.507  113.260 
 2585    5.066    7.278    3.498   34.385   26.896    3.600  108.740 
 2587    5.240    7.278    3.498   34.385   26.896    3.600   95.540 
 2588    5.414    7.278    3.498   34.385   26.896    3.624   91.056 
 2589    5.587    7.278    3.498   34.385   26.896    3.624   86.462 
 2591    5.761    7.278    3.498   34.385   26.896    3.647   80.894 
 2592    5.935    7.278    3.498   34.385   26.896    3.647   77.958 
 2594    6.108    7.278    3.498   34.385   26.896    3.647   75.685 
 2595    6.282    7.278    3.498   34.385   26.896    3.647   73.479 
 2597    6.456    7.278    3.498   34.385   26.896    3.716   70.550 
 2598    6.629    7.278    3.498   34.385   26.896    3.716   69.002 
 2600    6.803    7.278    3.498   34.385   26.896    3.716   67.239 
 2601    6.977    7.277    3.498   34.385   26.896    3.716   66.252 
 2603    7.150    7.277    3.498   34.385   26.896    3.716   63.142 
 2605    7.324    7.276    3.498   34.385   26.896    3.716   59.515 
 2607    7.497    7.276    3.498   34.385   26.896    3.716   55.068 
 2608    7.671    7.276    3.498   34.386   26.896    3.716   52.678 
 2610    7.845    7.276    3.498   34.386   26.896    3.716   48.204 
 2612    8.018    7.276    3.498   34.386   26.896    3.693   45.267 
 2613    8.192    7.276    3.498   34.386   26.896    3.670   44.438 
 2614    8.366    7.276    3.498   34.386   26.896    3.670   43.948 
 2617    8.539    7.275    3.498   34.386   26.896    3.693   43.463 
 2618    8.713    7.275    3.498   34.386   26.896    3.670   42.825 
 2620    8.887    7.275    3.498   34.386   26.896    3.693   41.576 
 2621    9.060    7.275    3.498   34.386   26.896    3.716   40.815 
 2623    9.234    7.275    3.498   34.386   26.896    3.740   38.756 
 2625    9.408    7.275    3.498   34.386   26.896    3.809   37.349 
 2627    9.581    7.274    3.498   34.385   26.896    3.809   35.860 
 2629    9.755    7.274    3.497   34.385   26.896    3.809   35.203 
 2632    9.929    7.273    3.497   34.385   26.896    3.833   34.815 
 2633   10.102    7.272    3.497   34.383   26.896    3.879   34.686 
 2636   10.276    7.269    3.497   34.383   26.897    3.833   33.551 
 2639   10.450    7.267    3.497   34.382   26.897    3.879   32.333 
 2641   10.623    7.267    3.497   34.382   26.897    3.809   30.929 
 2644   10.797    7.266    3.497   34.382   26.897    3.809   29.153 
 2646   10.971    7.264    3.497   34.382   26.897    3.740   28.303 
 2647   11.144    7.261    3.497   34.382   26.897    3.740   27.682 
 2648   11.318    7.260    3.496   34.382   26.897    3.740   27.175 
 2650   11.491    7.258    3.496   34.382   26.897    3.740   25.899 
 2652   11.839    7.255    3.496   34.382   26.897    3.740   25.051 
 2654   12.012    7.249    3.495   34.382   26.898    3.716   23.525 
 2655   12.186    7.249    3.495   34.383   26.898    3.740   22.839 
 2656   12.360    7.246    3.495   34.383   26.899    3.740   22.174 
 2657   12.533    7.239    3.495   34.383   26.900    3.740   21.767 
 2658   12.707    7.236    3.495   34.385   26.902    3.809   21.290 
 2659   12.881    7.233    3.494   34.385   26.902    3.809   20.517 
 2660   13.054    7.233    3.494   34.387   26.904    3.809   19.772 
 2661   13.228    7.228    3.494   34.387   26.904    3.833   19.054 
 2662   13.402    7.224    3.494   34.387   26.905    3.833   18.363 
 2663   13.575    7.219    3.493   34.387   26.906    3.833   17.827 
 2665   13.749    7.210    3.492   34.387   26.907    3.879   16.928 
 2666   13.923    7.196    3.492   34.389   26.910    3.879   16.679 
 2667   14.096    7.188    3.491   34.390   26.912    3.902   16.253 
 2669   14.270    7.159    3.489   34.391   26.917    3.902   15.663 
 2670   14.443    7.153    3.488   34.391   26.918    3.925   15.490 
 2673   14.617    7.128    3.485   34.391   26.922    3.972   14.983 
 2674   14.791    7.124    3.485   34.393   26.923    3.972   14.763 
 2678   14.964    7.113    3.484   34.393   26.925    4.065   14.227 
 2682   15.138    7.111    3.484   34.394   26.926    4.135   13.610 
 2685   15.312    7.099    3.482   34.394   26.928    4.158   13.116 
 2688   15.485    7.093    3.482   34.395   26.930    4.204   12.593 
 2689   15.659    7.081    3.482   34.397   26.932    4.251   12.408 
 2691   15.833    7.067    3.480   34.397   26.934    4.251   11.913 
 2693   16.006    7.050    3.479   34.397   26.937    4.251   11.481 
 2694   16.180    7.037    3.478   34.397   26.938    4.297   11.229 
 2695   16.354    7.019    3.476   34.397   26.942    4.297   11.064 
 2697   16.527    7.004    3.475   34.399   26.945    4.297   10.506 
 2698   16.701    6.999    3.474   34.399   26.946    4.297   10.237 
 2699   16.875    6.996    3.474   34.400   26.947    4.297   10.087 
 2701   17.048    6.982    3.473   34.400   26.949    4.297    9.473 
 2702   17.222    6.969    3.472   34.400   26.951    4.297    9.231 
 2703   17.395    6.950    3.470   34.401   26.954    4.297    8.962 
 2704   17.569    6.933    3.469   34.400   26.956    4.297    8.733 
 2705   17.743    6.925    3.468   34.401   26.957    4.297    8.509 
 2706   17.916    6.920    3.467   34.401   26.958    4.320    8.261 
 2707   18.090    6.914    3.467   34.401   26.959    4.320    8.050 
 2708   18.264    6.903    3.466   34.401   26.961    4.344    7.874 
 2709   18.437    6.876    3.465   34.401   26.964    4.344    7.644 
 2710   18.611    6.859    3.462   34.401   26.967    4.390    7.504 
 2712   18.785    6.805    3.457   34.402   26.974    4.390    7.125 
 2714   18.958    6.767    3.454   34.402   26.979    4.413    6.766 
 2715   19.132    6.764    3.454   34.401   26.979    4.413    6.642 
 2717   19.306    6.761    3.453   34.401   26.980    4.413    6.448 
 2718   19.479    6.760    3.453   34.401   26.980    4.413    6.354 
 2720   19.653    6.758    3.453   34.400   26.980    4.437    6.214 
 2723   19.826    6.757    3.453   34.400   26.980    4.460    5.901 
 2724   20.000    6.757    3.452   34.400   26.980    4.483    5.836 
 2727   20.174    6.748    3.451   34.400   26.981    4.460    5.562 
 2730   20.347    6.728    3.450   34.400   26.984    4.460    5.380 
 2733   20.521    6.677    3.446   34.400   26.990    4.460    5.108 
 2734   20.695    6.676    3.445   34.400   26.991    4.460    5.071 
 2737   20.868    6.653    3.443   34.400   26.994    4.460    4.815 
 2738   21.042    6.652    3.443   34.400   26.994    4.437    4.744 
 2739   21.216    6.652    3.443   34.401   26.994    4.437    4.657 
 2741   21.389    6.650    3.443   34.402   26.996    4.390    4.488 
 2743   21.737    6.649    3.443   34.402   26.996    4.390    4.325 
 2745   21.910    6.647    3.443   34.402   26.996    4.390    4.122 
 2746   22.084    6.647    3.443   34.402   26.996    4.390    4.062 
 2747   22.257    6.639    3.442   34.403   26.998    4.390    3.987 
 2748   22.431    6.585    3.439   34.403   27.005    4.367    3.929 
 2749   22.605    6.569    3.437   34.403   27.007    4.367    3.885 
 2750   22.778    6.561    3.436   34.405   27.010    4.390    3.828 
 2751   22.952    6.511    3.433   34.407   27.018    4.390    3.758 
 2753   23.126    6.486    3.430   34.411   27.024    4.390    3.622 
 2754   23.299    6.480    3.428   34.411   27.026    4.390    3.555 
 2755   23.473    6.480    3.428   34.411   27.026    4.390    3.465 
 2756   23.647    6.476    3.428   34.411   27.026    4.413    3.414 
 2757   23.820    6.465    3.428   34.411   27.028    4.437    3.351 
 2759   23.994    6.444    3.425   34.414   27.032    4.460    3.314 
 2760   24.168    6.438    3.425   34.414   27.033    4.483    3.290 
 2762   24.341    6.390    3.421   34.414   27.039    4.506    3.241 
 2763   24.515    6.377    3.420   34.415   27.042    4.506    3.194 
 2766   24.688    6.329    3.416   34.416   27.049    4.576    3.101 
 2768   24.862    6.271    3.411   34.416   27.057    4.622    3.055 
 2770   25.036    6.240    3.408   34.415   27.060    4.622    2.955 
 2774   25.209    6.205    3.404   34.415   27.064    4.646    2.859 
 2778   25.383    6.194    3.403   34.416   27.067    4.692    2.817 
 2783   25.557    6.185    3.402   34.417   27.068    4.530    2.724 
 2785   25.730    6.167    3.401   34.417   27.071    4.530    2.635 
 2787   25.904    6.153    3.399   34.418   27.073    4.506    2.577 
 2788   26.078    6.143    3.399   34.421   27.077    4.506    2.539 
 2790   26.251    6.084    3.394   34.421   27.084    4.483    2.411 
 2791   26.425    6.065    3.393   34.421   27.087    4.460    2.324 
 2792   26.598    6.032    3.390   34.421   27.091    4.437    2.290 
 2794   26.772    6.014    3.387   34.421   27.094    4.390    2.248 
 2795   27.119    6.012    3.387   34.422   27.094    4.367    2.207 
 2797   27.467    5.982    3.385   34.423   27.099    4.320    2.119 
 2798   27.640    5.935    3.382   34.423   27.105    4.320    2.004 
 2799   27.814    5.910    3.379   34.427   27.111    4.297    1.982 
 2800   27.988    5.895    3.377   34.427   27.114    4.297    1.953 
 2801   28.161    5.851    3.375   34.427   27.119    4.320    1.953 
 2802   28.335    5.817    3.371   34.428   27.124    4.320    1.939 
 2803   28.682    5.796    3.369   34.429   27.127    4.320    1.932 
 2804   28.856    5.772    3.367   34.429   27.130    4.320    1.924 
 2805   29.029    5.755    3.365   34.431   27.134    4.320    1.917 
 2806   29.203    5.749    3.364   34.431   27.135    4.320    1.889 
 2807   29.377    5.747    3.364   34.431   27.135    4.320    1.862 
 2808   29.550    5.743    3.364   34.432   27.136    4.297    1.821 
 2809   29.898    5.743    3.364   34.432   27.136    4.297    1.774 
 2812   30.071    5.717    3.362   34.432   27.140    4.227    1.742 
 2813   30.245    5.689    3.360   34.435   27.145    4.297    1.735 
 2814   30.418    5.657    3.358   34.435   27.149    4.390    1.729 
 2815   30.592    5.635    3.355   34.437   27.153    4.413    1.729 
 2819   30.766    5.594    3.351   34.444   27.164    4.530    1.716 
 2821   30.939    5.546    3.349   34.445   27.171    4.622    1.710 
 2825   31.113    5.490    3.343   34.446   27.179    4.715    1.710 
 2830   31.287    5.443    3.340   34.447   27.184    4.739    1.685 
 2833   31.460    5.381    3.333   34.448   27.193    4.739    1.685 
 2836   31.634    5.298    3.328   34.451   27.205    4.622    1.678 
 2837   31.808    5.278    3.325   34.451   27.208    4.530    1.654 
 2839   31.981    5.239    3.322   34.451   27.212    4.158    1.635 
 2840   32.155    5.226    3.320   34.453   27.216    4.042    1.629 
 2842   32.328    5.192    3.317   34.454   27.220    3.763    1.588 
 2843   32.502    5.186    3.317   34.455   27.222    3.693    1.564 
 2845   32.676    5.178    3.315   34.455   27.223    3.647    1.525 
 2846   32.849    5.175    3.315   34.455   27.223    3.624    1.513 
 2847   33.023    5.168    3.315   34.455   27.224    3.600    1.497 
 2848   33.197    5.161    3.314   34.455   27.225    3.600    1.480 
 2850   33.370    5.150    3.313   34.456   27.227    3.577    1.453 
 2851   33.544    5.144    3.313   34.455   27.227    3.577    1.432 
 2852   33.718    5.138    3.312   34.455   27.227    3.531    1.426 
 2854   33.891    5.123    3.311   34.454   27.228    3.507    1.416 
 2855   34.065    5.111    3.310   34.454   27.229    3.461    1.416 
 2856   34.238    5.098    3.309   34.451   27.229    3.461    1.400 
 2858   34.412    5.082    3.307   34.451   27.231    3.484    1.385 
 2860   34.586    5.076    3.307   34.451   27.231    3.484    1.349 
 2862   34.759    5.059    3.306   34.451   27.233    3.461    1.344 
 2863   34.933    5.047    3.305   34.451   27.234    3.461    1.344 
 2865   35.107    5.030    3.303   34.451   27.237    3.461    1.339 
 2868   35.280    5.026    3.302   34.451   27.237    3.414    1.339 
 2872   35.454    5.026    3.302   34.451   27.237    3.298    1.339 
 2874   35.627    5.026    3.302   34.451   27.237    3.228    1.339 
 2877   35.801    5.026    3.302   34.451   27.237    3.159    1.339 
 2878   35.975    5.026    3.302   34.451   27.237    3.159    1.334 
 2880   36.148    5.026    3.302   34.451   27.237    3.112    1.334 
 2882   36.322    5.026    3.302   34.451   27.237    2.996    1.334 
 2884   36.496    5.026    3.302   34.451   27.237    2.973    1.334 
 2885   36.669    5.026    3.302   34.451   27.237    2.973    1.330 
 2886   36.843    5.023    3.302   34.451   27.237    2.927    1.330 
 2887   37.017    5.023    3.302   34.451   27.237    2.857    1.330 
 2888   37.190    5.023    3.302   34.452   27.239    2.857    1.325 
 2889   37.364    5.019    3.301   34.453   27.239    2.857    1.325 
 2890   37.711    5.015    3.301   34.453   27.240    2.810    1.325 
 2892   38.058    4.984    3.299   34.453   27.243    2.787    1.305 
 2893   38.232    4.978    3.298   34.453   27.244    2.764    1.277 
 2894   38.406    4.972    3.298   34.456   27.247    2.764    1.263 
 2895   38.753    4.970    3.298   34.458   27.249    2.741    1.258 
 2896   38.926    4.966    3.297   34.458   27.250    2.741    1.253 
 2897   39.100    4.963    3.297   34.459   27.251    2.741    1.253 
 2898   39.274    4.960    3.297   34.460   27.252    2.671    1.253 
 2899   39.447    4.952    3.297   34.466   27.258    2.671    1.253 
 2900   39.795    4.930    3.295   34.467   27.261    2.578    1.249 
 2901   39.968    4.890    3.293   34.474   27.271    2.578    1.249 
 2902   40.142    4.878    3.291   34.474   27.273    2.578    1.244 
 2903   40.315    4.868    3.291   34.474   27.274    2.578    1.239 
 2904   40.489    4.866    3.290   34.474   27.274    2.578    1.226 
 2905   40.663    4.853    3.289   34.474   27.276    2.578    1.226 
 2906   40.836    4.842    3.289   34.476   27.277    2.578    1.221 
 2907   41.010    4.838    3.288   34.476   27.278    2.578    1.217 
 2908   41.184    4.832    3.288   34.476   27.279    2.578    1.217 
 2909   41.357    4.819    3.287   34.477   27.279    2.671    1.217 
 2911   41.531    4.819    3.286   34.480   27.279    2.671    1.212 
 2912   41.704    4.818    3.286   34.480   27.280    2.671    1.212 
 2915   41.878    4.815    3.286   34.480   27.281    2.717    1.203 
 2927   42.052    4.906    3.292   34.484   27.284    3.019    1.199 
 2934   42.225    4.906    3.292   34.486   27.284    2.857    1.194 
 2936   42.399    4.906    3.292   34.487   27.284    2.857    1.194 
 2938   42.573    4.779    3.287   34.488   27.295    2.717    1.190 
 2939   42.746    4.775    3.286   34.500   27.305    2.671    1.190 
 2940   42.920    4.768    3.280   34.502   27.307    2.346    1.186 
 2942   43.267    4.694    3.278   34.504   27.317    1.835    1.181 
 2944   43.441    4.683    3.276   34.505   27.319    1.718    1.177 
 2945   43.614    4.678    3.276   34.505   27.320    1.602    1.173 
 2946   43.962    4.668    3.275   34.505   27.321    1.556    1.164 
 2948   44.135    4.658    3.274   34.506   27.323    1.463    1.160 
 2949   44.309    4.655    3.274   34.507   27.324    1.393    1.160 
 2950   44.482    4.653    3.274   34.507   27.324    1.393    1.160 
 2951   44.656    4.651    3.274   34.509   27.326    1.393    1.160 
 2952   44.830    4.642    3.273   34.509   27.327    1.370    1.160 
 2953   45.003    4.636    3.273   34.509   27.328    1.370    1.155 
 2954   45.177    4.631    3.272   34.510   27.328    1.370    1.155 
 2955   45.351    4.626    3.272   34.510   27.329    1.324    1.155 
 2956   45.524    4.621    3.271   34.510   27.330    1.324    1.155 
 2957   45.698    4.615    3.271   34.511   27.331    1.324    1.151 
 2958   45.871    4.611    3.271   34.511   27.332    1.324    1.151 
 2960   46.045    4.605    3.270   34.512   27.333    1.324    1.151 
 2961   46.219    4.604    3.270   34.513   27.334    1.370    1.151 
 2963   46.392    4.597    3.270   34.515   27.337    1.370    1.151 
 2964   46.566    4.593    3.269   34.518   27.339    1.370    1.151 
 2965   46.740    4.582    3.269   34.522   27.343    1.370    1.151 
 2969   46.913    4.547    3.266   34.522   27.347    1.370    1.147 
 2970   47.087    4.542    3.266   34.523   27.349    1.370    1.143 
 2972   47.260    4.537    3.265   34.524   27.350    1.393    1.138 
 2976   47.434    4.523    3.264   34.528   27.355    1.393    1.134 
 2979   47.608    4.514    3.264   34.528   27.356    1.393    1.130 
 2983   47.781    4.505    3.263   34.530   27.358    1.347    1.130 
 2986   47.955    4.495    3.262   34.530   27.360    1.324    1.130 
 2988   48.129    4.490    3.262   34.531   27.361    1.324    1.130 
