NAFC_Y2K_HEADER
39673007  48 57.70 -048 50.89 2006-06-11 20:09 1966 S0281 007 V stn 7          1
39673007 002606  8.00 A 08 #PTCSMFL------------            D 000 0000 0480 000 4
39673007 9 18 19 45 1009.0 008.0 008.0 04 04 15 07 06                          8
-- CHANNEL STATS -->
# span     scan =   3036.000,  8005.000
# span     pres =      0.899,   480.208
# span     temp =      3.039,     7.027
# span     cond =      3.113,     3.461
# span      sal =     33.630,    34.857
# span     sigt =     26.468,    27.711
# span     flor =      0.278,     7.945
# span      par =      0.850,   260.250
-- END --
-- HISTORY --> Thu Jun 22 14:22:50 2006
>SELECT_PROBE S
>READ # (DP) T C L F scan pres temp cond par flor
>STABILIZE_RESTRICT USING= pres 10.0 5 
>RESTRICT USING= pres 0.0 2000.0
>RESTRICT USING= cond 2.0 5.0
>RESTRICT USING= temp -2.0 20.0
>RESTRICT USING= scan 500.0 30000.0
>MEDIANFILTER pres 21 1
>MEDIANFILTER temp 21 1
>MEDIANFILTER cond 21 1
>MEDIANFILTER flor 21 1
>MEDIANFILTER par 21 1
>SELECT_DN USING= pres
>SALINITY PRESSURE=pres CONDUCTIVITY=cond TEMPERATURE=temp RESULT=sal
>RESTRICT USING= sal 29.0 36.0
>MEDIANFILTER sal 21 1
>SIGMAT SALINITY=sal TEMPERATURE=temp RESULT=sigt
>MEDIANFILTER sigt 21 1
>HISTORY_ON
>WRITEFILE .p???? scan pres temp cond sal sigt flor par
-- END --
 scan     pres     temp     cond      sal     sigt     flor      par 
-- DATA --
 3036    0.899    6.011    3.317   33.641   26.477    4.878  249.880 
 3043    1.072    6.012    3.317   33.640   26.476    4.739  260.250 
 3045    1.246    6.013    3.317   33.638   26.475    4.739  248.040 
 3047    1.420    6.014    3.317   33.637   26.474    4.739  232.070 
 3048    1.593    6.014    3.317   33.637   26.474    4.739  224.470 
 3049    1.767    6.014    3.317   33.637   26.474    4.739  215.520 
 3050    1.941    6.017    3.317   33.634   26.471    4.739  205.410 
 3052    2.114    6.020    3.317   33.631   26.469    4.715  185.200 
 3053    2.288    6.020    3.317   33.631   26.469    4.692  174.560 
 3054    2.462    6.021    3.317   33.630   26.468    4.669  163.930 
 3055    2.635    6.021    3.318   33.638   26.474    4.669  154.510 
 3056    2.809    6.021    3.318   33.638   26.474    4.669  147.260 
 3057    2.982    6.022    3.318   33.638   26.474    4.646  142.440 
 3058    3.156    6.022    3.318   33.638   26.474    4.646  139.310 
 3059    3.330    6.022    3.318   33.638   26.474    4.646  136.260 
 3060    3.503    6.023    3.318   33.638   26.474    4.646  134.750 
 3061    3.677    6.023    3.318   33.638   26.474    4.669  132.770 
 3062    3.851    6.023    3.318   33.638   26.474    4.669  132.280 
 3064    4.024    6.023    3.318   33.638   26.474    4.669  131.310 
 3067    4.198    6.023    3.318   33.638   26.474    4.646  129.380 
 3079    4.372    6.024    3.318   33.638   26.474    4.599  128.430 
 3091    4.545    6.023    3.318   33.638   26.474    4.553  124.220 
 3092    4.719    6.023    3.318   33.638   26.474    4.553  123.310 
 3093    4.893    6.023    3.318   33.638   26.474    4.553  121.050 
 3095    5.066    6.023    3.318   33.638   26.474    4.506  116.660 
 3096    5.240    6.023    3.318   33.638   26.474    4.483  114.100 
 3097    5.414    6.023    3.318   33.638   26.473    4.483  111.590 
 3098    5.587    6.023    3.318   33.638   26.473    4.483  108.740 
 3099    5.761    6.023    3.318   33.637   26.473    4.460  106.350 
 3100    5.935    6.023    3.318   33.637   26.473    4.344  104.020 
 3101    6.108    6.023    3.318   33.637   26.473    4.251  101.360 
 3102    6.282    6.023    3.318   33.637   26.473    4.204   99.506 
 3103    6.456    6.023    3.318   33.637   26.473    4.204   98.045 
 3104    6.629    6.023    3.318   33.637   26.473    4.204   96.606 
 3106    6.803    6.023    3.318   33.637   26.473    4.158   93.790 
 3107    6.977    6.023    3.318   33.637   26.473    4.111   92.072 
 3108    7.150    6.023    3.318   33.637   26.473    4.111   90.720 
 3110    7.324    6.024    3.318   33.636   26.472    4.111   87.104 
 3111    7.497    6.024    3.318   33.636   26.472    4.088   86.143 
 3112    7.671    6.024    3.318   33.636   26.472    4.065   84.878 
 3114    7.845    6.024    3.318   33.636   26.472    4.065   82.100 
 3115    8.018    6.024    3.318   33.636   26.472    4.018   80.298 
 3117    8.192    6.025    3.318   33.636   26.472    3.995   77.383 
 3118    8.366    6.027    3.318   33.636   26.472    3.902   76.247 
 3119    8.539    6.027    3.318   33.636   26.472    3.856   75.406 
 3121    8.713    6.027    3.318   33.636   26.472    3.809   75.406 
 3122    8.887    6.027    3.318   33.636   26.472    3.809   75.406 
 3124    9.060    6.031    3.318   33.636   26.472    3.763   75.406 
 3125    9.234    6.033    3.319   33.637   26.472    3.740   75.406 
 3128    9.408    6.041    3.320   33.639   26.472    3.670   75.406 
 3129    9.581    6.041    3.320   33.639   26.472    3.647   75.406 
 3131    9.755    6.041    3.320   33.639   26.472    3.600   75.685 
 3134    9.929    6.041    3.320   33.639   26.472    3.577   75.685 
 3136   10.102    6.041    3.320   33.639   26.472    3.484   75.685 
 3139   10.276    6.042    3.320   33.639   26.472    3.438   75.685 
 3141   10.450    6.042    3.320   33.639   26.472    3.391   75.685 
 3143   10.623    6.042    3.320   33.639   26.472    3.368   74.574 
 3146   10.797    6.041    3.320   33.639   26.472    3.275   72.938 
 3149   11.144    6.041    3.320   33.639   26.472    3.228   71.867 
 3152   11.318    6.040    3.320   33.639   26.472    3.136   70.811 
 3153   11.491    6.040    3.320   33.639   26.472    3.136   70.550 
 3155   11.665    6.031    3.319   33.639   26.473    3.089   69.002 
 3156   11.839    6.031    3.319   33.639   26.473    3.066   68.494 
 3157   12.012    6.030    3.319   33.639   26.474    3.019   67.989 
 3159   12.186    6.025    3.318   33.639   26.474    2.857   67.239 
 3160   12.360    6.022    3.318   33.639   26.474    2.857   66.743 
 3161   12.533    6.021    3.318   33.639   26.475    2.834   66.252 
 3162   12.707    6.021    3.318   33.640   26.475    2.810   65.521 
 3163   12.881    6.019    3.318   33.640   26.475    2.810   64.559 
 3164   13.054    6.018    3.318   33.640   26.476    2.787   63.846 
 3165   13.228    6.017    3.318   33.640   26.476    2.764   63.142 
 3166   13.402    6.017    3.318   33.640   26.476    2.741   62.215 
 3168   13.749    6.003    3.317   33.641   26.479    2.625   60.401 
 3169   13.923    6.003    3.317   33.642   26.479    2.578   59.735 
 3171   14.096    6.003    3.317   33.642   26.479    2.462   58.209 
 3172   14.270    6.003    3.317   33.642   26.479    2.462   57.567 
 3173   14.443    6.003    3.317   33.642   26.479    2.462   56.931 
 3174   14.617    6.003    3.317   33.642   26.479    2.462   56.303 
 3175   14.791    6.003    3.317   33.642   26.479    2.439   55.682 
 3176   14.964    6.003    3.317   33.642   26.479    2.369   55.272 
 3178   15.138    6.003    3.317   33.642   26.479    2.346   54.460 
 3179   15.312    6.021    3.320   33.657   26.489    2.322   54.259 
 3181   15.485    6.029    3.322   33.670   26.496    2.322   53.860 
 3182   15.659    6.039    3.323   33.672   26.498    2.276   53.661 
 3184   15.833    6.064    3.325   33.673   26.499    2.253   53.463 
 3186   16.006    6.067    3.327   33.690   26.509    2.206   52.873 
 3189   16.180    6.096    3.331   33.701   26.514    2.183   52.678 
 3192   16.354    6.101    3.331   33.706   26.514    2.160   52.290 
 3195   16.527    6.105    3.332   33.707   26.514    2.137   51.904 
 3196   16.701    6.106    3.332   33.708   26.517    2.113   51.904 
 3199   16.875    6.159    3.337   33.710   26.518    2.090   51.332 
 3201   17.048    6.187    3.341   33.715   26.519    2.090   50.954 
 3203   17.222    6.189    3.342   33.727   26.522    2.090   50.391 
 3205   17.395    6.255    3.346   33.736   26.523    2.090   49.652 
 3206   17.569    6.268    3.351   33.758   26.538    2.113   49.104 
 3207   17.743    6.276    3.353   33.773   26.540    2.137   48.562 
 3208   17.916    6.328    3.358   33.777   26.545    2.137   48.204 
 3209   18.090    6.391    3.364   33.781   26.548    2.137   47.672 
 3211   18.437    6.655    3.400   33.913   26.607    2.137   46.454 
 3212   18.611    6.706    3.404   33.919   26.609    2.160   45.942 
 3213   18.785    6.707    3.409   33.924   26.611    2.299   45.435 
 3214   18.958    6.716    3.409   33.951   26.627    2.369   44.934 
 3215   19.132    6.723    3.409   33.958   26.631    2.369   44.438 
 3216   19.306    6.839    3.417   33.967   26.636    2.392   43.948 
 3217   19.479    6.928    3.436   34.046   26.677    2.415   43.463 
 3219   19.653    6.930    3.441   34.091   26.712    2.741   42.352 
 3220   19.826    6.934    3.441   34.094   26.713    2.810   41.576 
 3221   20.000    6.937    3.441   34.098   26.715    2.810   41.118 
 3222   20.174    7.003    3.448   34.103   26.717    2.810   40.664 
 3223   20.347    7.027    3.459   34.194   26.780    2.834   40.215 
 3224   20.521    7.027    3.460   34.195   26.781    2.903   39.772 
 3226   20.695    7.027    3.461   34.200   26.785    3.019   38.756 
 3228   20.868    7.027    3.461   34.203   26.788    3.019   38.187 
 3230   21.042    7.027    3.461   34.204   26.788    3.089   37.487 
 3233   21.389    7.027    3.461   34.204   26.788    3.136   36.937 
 3238   21.563    7.023    3.459   34.204   26.789    3.182   36.126 
 3240   21.737    7.022    3.459   34.206   26.791    3.159   35.860 
 3244   21.910    7.022    3.459   34.211   26.794    3.182   35.073 
 3246   22.084    7.022    3.459   34.215   26.798    3.182   34.558 
 3248   22.257    7.021    3.458   34.221   26.803    3.182   33.800 
 3250   22.605    7.020    3.458   34.221   26.803    3.205   32.936 
 3253   22.778    7.008    3.458   34.221   26.805    3.252   31.390 
 3255   23.126    6.999    3.458   34.221   26.806    3.252   30.363 
 3256   23.299    6.980    3.458   34.232   26.816    3.252   29.917 
 3257   23.473    6.963    3.457   34.234   26.821    3.252   29.478 
 3258   23.647    6.957    3.456   34.235   26.822    3.275   28.831 
 3259   23.820    6.951    3.456   34.239   26.826    3.275   28.303 
 3260   23.994    6.949    3.455   34.239   26.827    3.298   27.887 
 3262   24.341    6.941    3.455   34.239   26.828    3.322   26.776 
 3264   24.515    6.930    3.454   34.240   26.830    3.322   25.899 
 3265   24.688    6.929    3.454   34.240   26.830    3.322   25.613 
 3266   24.862    6.919    3.453   34.241   26.832    3.322   25.051 
 3267   25.036    6.908    3.453   34.250   26.841    3.345   24.684 
 3269   25.209    6.898    3.453   34.259   26.849    3.414   23.876 
 3270   25.383    6.898    3.453   34.259   26.849    3.438   23.525 
 3271   25.557    6.898    3.453   34.259   26.849    3.484   23.266 
 3273   25.730    6.898    3.453   34.259   26.849    3.484   22.755 
 3274   25.904    6.898    3.453   34.259   26.849    3.507   22.504 
 3276   26.078    6.898    3.453   34.260   26.849    3.507   22.010 
 3278   26.251    6.898    3.453   34.260   26.849    3.531   21.607 
 3279   26.425    6.898    3.453   34.260   26.850    3.531   21.369 
 3283   26.598    6.902    3.454   34.260   26.850    3.624   20.823 
 3287   26.772    6.904    3.454   34.260   26.850    3.647   20.291 
 3292   26.946    6.904    3.454   34.260   26.850    3.856   19.772 
 3296   27.119    6.904    3.454   34.259   26.850    3.925   19.267 
 3299   27.293    6.598    3.427   34.259   26.890    3.995   18.705 
 3301   27.467    6.575    3.425   34.259   26.893    4.018   18.295 
 3302   27.640    6.562    3.425   34.259   26.895    4.042   18.093 
 3305   27.988    6.463    3.414   34.259   26.908    4.018   17.308 
 3307   28.161    6.386    3.406   34.254   26.914    4.018   16.679 
 3308   28.335    6.361    3.404   34.254   26.917    4.018   16.374 
 3309   28.508    6.337    3.401   34.254   26.920    4.018   16.074 
 3310   28.682    6.317    3.400   34.254   26.922    4.042   15.779 
 3312   28.856    6.237    3.393   34.254   26.933    4.042   15.207 
 3313   29.203    6.237    3.393   34.254   26.933    4.042   14.928 
 3315   29.550    6.237    3.393   34.254   26.933    4.042   14.386 
 3316   29.724    6.237    3.393   34.254   26.933    4.042   14.070 
 3318   30.071    6.237    3.393   34.254   26.933    4.088   13.460 
 3319   30.245    6.237    3.393   34.254   26.933    4.297   13.213 
 3320   30.418    6.237    3.393   34.254   26.933    4.297   12.923 
 3322   30.592    6.237    3.393   34.254   26.933    4.460   12.454 
 3323   30.766    6.290    3.401   34.289   26.954    5.017   12.181 
 3324   30.939    6.313    3.404   34.298   26.958    5.319   11.958 
 3325   31.113    6.317    3.405   34.299   26.958    5.738   11.695 
 3326   31.287    6.347    3.407   34.306   26.960    5.831   11.481 
 3327   31.460    6.363    3.410   34.316   26.965    5.831   11.312 
 3329   31.634    6.374    3.412   34.327   26.973    6.016   10.983 
 3330   31.808    6.381    3.413   34.331   26.975    6.202   10.821 
 3332   31.981    6.382    3.415   34.347   26.988    6.249   10.545 
 3335   32.155    6.387    3.415   34.351   26.990    6.528   10.200 
 3336   32.328    6.387    3.416   34.352   26.991    6.551   10.087 
 3340   32.502    6.396    3.417   34.358   26.994    6.644    9.685 
 3341   32.676    6.405    3.417   34.359   26.994    6.713    9.614 
 3344   32.849    6.408    3.418   34.359   26.994    6.992    9.333 
 3347   33.023    6.414    3.419   34.360   26.995    7.318    8.962 
 3349   33.197    6.416    3.419   34.362   26.995    7.364    8.668 
 3351   33.370    6.419    3.419   34.363   26.995    7.434    8.415 
 3352   33.544    6.420    3.420   34.364   26.996    7.527    8.261 
 3354   33.718    6.422    3.420   34.367   26.998    7.596    7.991 
 3355   33.891    6.426    3.420   34.369   26.998    7.643    7.815 
 3357   34.065    6.438    3.422   34.371   26.999    7.712    7.532 
 3359   34.238    6.440    3.422   34.371   26.999    7.782    7.232 
 3360   34.412    6.445    3.423   34.373   26.999    7.805    7.073 
 3361   34.586    6.448    3.423   34.373   26.999    7.852    6.943 
 3362   34.759    6.451    3.423   34.373   27.000    7.922    6.816 
 3364   34.933    6.460    3.424   34.374   27.000    7.922    6.544 
 3366   35.107    6.470    3.425   34.377   27.000    7.945    6.307 
 3367   35.280    6.472    3.426   34.379   27.001    7.922    6.168 
 3369   35.627    6.475    3.426   34.379   27.001    7.922    5.923 
 3372   35.975    6.479    3.427   34.383   27.002    7.922    5.603 
 3374   36.148    6.486    3.427   34.386   27.003    7.852    5.420 
 3376   36.496    6.497    3.429   34.386   27.003    7.875    5.281 
 3378   36.669    6.501    3.429   34.386   27.003    7.875    5.127 
 3380   36.843    6.507    3.430   34.387   27.003    7.829    4.996 
 3382   37.017    6.522    3.431   34.390   27.003    7.782    4.869 
 3383   37.190    6.534    3.432   34.391   27.005    7.689    4.815 
 3384   37.364    6.538    3.434   34.404   27.012    7.527    4.744 
 3387   37.537    6.538    3.435   34.412   27.019    7.341    4.572 
 3389   37.711    6.538    3.435   34.413   27.019    7.201    4.455 
 3390   37.885    6.538    3.435   34.413   27.019    7.178    4.390 
 3393   38.058    6.538    3.435   34.413   27.019    7.015    4.199 
 3394   38.232    6.538    3.435   34.413   27.019    7.015    4.153 
 3395   38.406    6.534    3.435   34.414   27.020    7.015    4.077 
 3397   38.579    6.529    3.434   34.415   27.022    6.969    3.958 
 3398   38.753    6.529    3.434   34.415   27.022    6.946    3.900 
 3400   38.926    6.524    3.434   34.415   27.022    6.946    3.786 
 3401   39.100    6.520    3.434   34.415   27.023    6.899    3.730 
 3403   39.274    6.510    3.433   34.415   27.024    6.830    3.635 
 3404   39.447    6.506    3.432   34.415   27.025    6.806    3.582 
 3406   39.621    6.495    3.431   34.415   27.026    6.806    3.490 
 3407   39.795    6.490    3.431   34.415   27.027    6.760    3.439 
 3409   39.968    6.486    3.430   34.415   27.027    6.760    3.339 
 3411   40.142    6.483    3.430   34.416   27.027    6.760    3.266 
 3412   40.315    6.481    3.430   34.414   27.028    6.713    3.218 
 3414   40.489    6.478    3.430   34.414   27.028    6.713    3.147 
 3416   40.663    6.476    3.429   34.416   27.029    6.760    3.067 
 3418   40.836    6.472    3.429   34.414   27.029    6.760    3.022 
 3421   41.010    6.467    3.429   34.414   27.029    6.760    2.912 
 3423   41.184    6.460    3.428   34.414   27.030    6.760    2.869 
 3425   41.357    6.454    3.428   34.414   27.031    6.760    2.827 
 3427   41.531    6.450    3.427   34.416   27.033    6.760    2.786 
 3429   41.704    6.447    3.427   34.416   27.033    6.760    2.755 
 3432   41.878    6.436    3.426   34.416   27.035    6.737    2.684 
 3433   42.052    6.432    3.425   34.416   27.035    6.737    2.655 
 3436   42.225    6.422    3.424   34.414   27.035    6.551    2.606 
 3438   42.399    6.397    3.424   34.414   27.039    6.319    2.558 
 3439   42.573    6.385    3.421   34.414   27.040    6.179    2.539 
 3441   42.746    6.380    3.421   34.414   27.041    5.970    2.484 
 3442   42.920    6.372    3.421   34.414   27.042    5.645    2.466 
 3444   43.093    6.371    3.420   34.414   27.042    5.529    2.411 
 3445   43.267    6.364    3.420   34.414   27.043    5.529    2.402 
 3446   43.441    6.362    3.420   34.414   27.043    5.459    2.367 
 3447   43.614    6.360    3.419   34.414   27.043    5.436    2.341 
 3448   43.788    6.359    3.419   34.414   27.044    5.203    2.315 
 3450   43.962    6.348    3.418   34.415   27.046    5.110    2.264 
 3451   44.135    6.347    3.418   34.415   27.046    5.041    2.240 
 3452   44.309    6.338    3.417   34.415   27.046    5.041    2.215 
 3453   44.482    6.338    3.417   34.415   27.046    4.948    2.182 
 3454   44.656    6.338    3.417   34.414   27.047    4.924    2.158 
 3455   44.830    6.338    3.417   34.414   27.047    4.924    2.134 
 3457   45.177    6.319    3.416   34.414   27.049    4.924    2.080 
 3459   45.351    6.216    3.407   34.413   27.062    4.924    2.049 
 3460   45.524    6.181    3.404   34.413   27.066    4.924    2.019 
 3462   45.698    6.091    3.395   34.413   27.077    4.948    1.982 
 3463   45.871    6.047    3.392   34.413   27.083    5.087    1.975 
 3464   46.045    5.971    3.386   34.412   27.092    5.110    1.960 
 3467   46.219    5.830    3.370   34.411   27.104    5.227    1.917 
 3468   46.392    5.784    3.367   34.398   27.108    5.227    1.903 
 3470   46.566    5.723    3.360   34.394   27.108    5.296    1.875 
 3472   46.740    5.679    3.356   34.393   27.109    5.389    1.862 
 3476   46.913    5.632    3.349   34.379   27.109    5.436    1.821 
 3479   47.087    5.594    3.347   34.377   27.111    5.784    1.801 
 3481   47.260    5.581    3.346   34.373   27.113    5.947    1.774 
 3484   47.434    5.449    3.333   34.366   27.120    6.086    1.761 
 3486   47.608    5.405    3.329   34.365   27.124    6.086    1.742 
 3488   47.781    5.142    3.305   34.361   27.152    6.086    1.716 
 3490   47.955    5.095    3.300   34.359   27.156    6.086    1.697 
 3491   48.129    5.016    3.295   34.350   27.158    5.993    1.691 
 3493   48.302    4.932    3.284   34.340   27.158    5.854    1.660 
 3494   48.476    4.891    3.281   34.332   27.158    5.784    1.660 
 3496   48.649    4.820    3.273   34.322   27.158    5.668    1.623 
 3497   48.823    4.806    3.271   34.320   27.158    5.529    1.600 
 3498   48.997    4.803    3.271   34.319   27.159    5.436    1.600 
 3500   49.170    4.777    3.269   34.318   27.160    5.250    1.576 
 3501   49.344    4.771    3.268   34.318   27.160    5.203    1.564 
