NAFC_Y2K_HEADER
39673027  53 14.41 -051 54.20 2006-06-16 17:20 1350 S0281 027 V   stn 27       1
39673027 002804  8.00 A 08 #PTCSMFL------------            D 000 0000 0503 000 4
39673027 8 07 15 02 1004.5 007.0 006.0 04 02 04 07 03    3                     8
-- CHANNEL STATS -->
# span     scan =   2313.000,  7268.000
# span     pres =      0.725,   503.601
# span     temp =      2.942,     5.155
# span     cond =      3.097,     3.243
# span      sal =     33.313,    34.858
# span     sigt =     26.321,    27.700
# span     flor =      0.208,    10.663
# span      par =      0.755,   561.610
-- END --
-- HISTORY --> Thu Jun 22 14:23:28 2006
>SELECT_PROBE S
>READ # (DP) T C L F scan pres temp cond par flor
>STABILIZE_RESTRICT USING= pres 10.0 5 
>RESTRICT USING= pres 0.0 2000.0
>RESTRICT USING= cond 2.0 5.0
>RESTRICT USING= temp -2.0 20.0
>RESTRICT USING= scan 500.0 30000.0
>MEDIANFILTER pres 21 1
>MEDIANFILTER temp 21 1
>MEDIANFILTER cond 21 1
>MEDIANFILTER flor 21 1
>MEDIANFILTER par 21 1
>SELECT_DN USING= pres
>SALINITY PRESSURE=pres CONDUCTIVITY=cond TEMPERATURE=temp RESULT=sal
>RESTRICT USING= sal 29.0 36.0
>MEDIANFILTER sal 21 1
>SIGMAT SALINITY=sal TEMPERATURE=temp RESULT=sigt
>MEDIANFILTER sigt 21 1
>HISTORY_ON
>WRITEFILE .p???? scan pres temp cond sal sigt flor par
-- END --
 scan     pres     temp     cond      sal     sigt     flor      par 
-- DATA --
 2313    0.725    5.151    3.213   33.315   26.323    1.672  561.610 
 2314    0.899    5.150    3.213   33.316   26.323    1.649  551.320 
 2320    1.072    5.151    3.213   33.315   26.322    1.463  537.230 
 2322    1.246    5.151    3.213   33.315   26.322    2.322  521.570 
 2325    1.420    5.151    3.213   33.315   26.322    1.974  484.390 
 2327    1.593    5.151    3.213   33.315   26.322    2.020  479.050 
 2328    1.767    5.151    3.213   33.315   26.322    2.020  470.270 
 2331    1.941    5.152    3.213   33.313   26.321    2.067  439.990 
 2333    2.114    5.152    3.213   33.313   26.321    2.020  416.250 
 2335    2.288    5.152    3.213   33.313   26.321    2.020  396.710 
 2338    2.462    5.153    3.213   33.316   26.323    2.020  372.540 
 2340    2.635    5.155    3.214   33.321   26.327    2.020  357.690 
 2342    2.809    5.155    3.214   33.321   26.327    1.997  349.840 
 2344    2.982    5.155    3.214   33.321   26.327    1.997  340.900 
 2347    3.156    5.155    3.214   33.321   26.327    2.020  333.420 
 2349    3.330    5.155    3.214   33.322   26.327    2.044  323.700 
 2355    3.503    5.155    3.214   33.322   26.327    2.090  296.210 
 2366    3.677    5.154    3.214   33.322   26.328    2.067  286.520 
 2371    3.851    5.153    3.214   33.322   26.328    2.067  274.080 
 2373    4.024    5.153    3.214   33.323   26.328    2.067  255.490 
 2374    4.198    5.153    3.214   33.323   26.328    2.137  246.210 
 2376    4.372    5.153    3.214   33.323   26.328    2.137  231.210 
 2378    4.545    5.153    3.214   33.323   26.328    2.160  225.300 
 2379    4.719    5.153    3.214   33.323   26.328    2.160  222.820 
 2380    4.893    5.153    3.214   33.323   26.328    2.160  220.360 
 2382    5.066    5.152    3.214   33.323   26.328    2.160  213.150 
 2383    5.240    5.152    3.214   33.323   26.328    2.206  208.470 
 2384    5.414    5.152    3.214   33.323   26.328    2.299  203.890 
 2385    5.587    5.152    3.214   33.323   26.328    2.299  199.420 
 2386    5.761    5.151    3.214   33.323   26.328    2.299  195.770 
 2389    5.935    5.151    3.213   33.323   26.328    2.253  183.840 
 2390    6.108    5.151    3.213   33.322   26.328    2.253  179.810 
 2392    6.282    5.151    3.213   33.322   26.328    2.253  172.000 
 2394    6.456    5.151    3.214   33.321   26.328    2.253  166.370 
 2396    6.629    5.151    3.214   33.320   26.327    2.253  162.120 
 2399    6.803    5.152    3.214   33.320   26.327    2.276  156.810 
 2400    6.977    5.153    3.214   33.320   26.326    2.253  155.660 
 2404    7.150    5.154    3.214   33.319   26.326    2.253  151.120 
 2407    7.324    5.154    3.214   33.319   26.326    2.253  147.800 
 2411    7.497    5.155    3.214   33.319   26.326    2.276  146.170 
 2414    7.671    5.155    3.214   33.319   26.326    2.346  144.560 
 2416    7.845    5.155    3.214   33.320   26.326    2.346  141.390 
 2420    8.018    5.155    3.214   33.320   26.326    2.439  130.820 
 2422    8.192    5.155    3.214   33.320   26.326    2.578  124.220 
 2423    8.366    5.155    3.214   33.320   26.326    2.601  121.050 
 2425    8.539    5.154    3.214   33.320   26.326    2.694  117.090 
 2426    8.713    5.154    3.214   33.319   26.326    2.717  114.520 
 2428    8.887    5.154    3.214   33.319   26.326    2.741  111.590 
 2430    9.234    5.153    3.214   33.319   26.326    3.019  108.340 
 2432    9.408    5.153    3.214   33.319   26.326    3.112  103.640 
 2433    9.581    5.153    3.214   33.319   26.326    3.136  101.360 
 2435    9.755    5.153    3.214   33.319   26.326    3.182   96.249 
 2436    9.929    5.152    3.214   33.319   26.326    3.182   93.790 
 2438   10.276    5.148    3.214   33.320   26.327    3.368   88.729 
 2440   10.450    5.144    3.213   33.320   26.327    3.368   84.878 
 2441   10.623    5.144    3.213   33.320   26.327    3.368   83.015 
 2445   10.797    5.144    3.213   33.320   26.327    3.438   78.246 
 2446   10.971    5.144    3.213   33.320   26.327    3.368   77.383 
 2447   11.144    5.144    3.213   33.321   26.328    3.368   76.813 
 2449   11.318    5.144    3.213   33.325   26.331    3.600   75.127 
 2451   11.491    5.146    3.214   33.325   26.331    3.600   73.479 
 2453   11.665    5.147    3.214   33.325   26.331    3.647   71.601 
 2456   11.839    5.147    3.214   33.325   26.331    3.647   68.747 
 2458   12.012    5.147    3.214   33.325   26.331    3.693   66.743 
 2460   12.186    5.147    3.214   33.325   26.331    3.809   64.798 
 2461   12.360    5.147    3.214   33.325   26.331    3.902   63.846 
 2464   12.533    5.135    3.213   33.325   26.331    3.925   61.075 
 2466   12.707    5.134    3.213   33.325   26.332    4.227   59.076 
 2467   12.881    5.134    3.213   33.325   26.332    4.437   58.424 
 2470   13.054    5.132    3.213   33.325   26.332    4.437   55.889 
 2472   13.228    5.132    3.213   33.325   26.332    4.437   54.259 
 2473   13.402    5.130    3.212   33.325   26.332    4.437   53.860 
 2477   13.575    5.129    3.212   33.325   26.332    4.530   51.142 
 2479   13.749    5.128    3.212   33.325   26.332    4.646   49.652 
 2481   13.923    5.127    3.212   33.325   26.332    4.530   48.383 
 2484   14.096    5.123    3.212   33.323   26.333    4.646   45.772 
 2485   14.270    5.122    3.212   33.322   26.333    4.715   44.934 
 2487   14.443    5.119    3.212   33.322   26.333    4.646   43.143 
 2489   14.617    5.114    3.211   33.322   26.333    4.646   41.885 
 2491   14.791    5.113    3.211   33.322   26.333    4.530   40.215 
 2493   14.964    5.110    3.211   33.322   26.333    4.715   38.899 
 2494   15.138    5.110    3.210   33.322   26.333    4.832   38.187 
 2496   15.312    5.105    3.210   33.322   26.333    4.855   36.664 
 2498   15.485    5.084    3.208   33.322   26.336    5.087   35.464 
 2499   15.659    5.079    3.208   33.322   26.337    5.087   34.558 
 2500   15.833    5.070    3.207   33.323   26.338    4.832   33.925 
 2502   16.006    5.068    3.207   33.323   26.338    5.087   32.573 
 2503   16.180    5.062    3.207   33.323   26.339    5.087   31.976 
 2505   16.354    5.055    3.206   33.323   26.339    5.087   30.815 
 2506   16.527    5.055    3.206   33.323   26.339    5.087   30.139 
 2507   16.701    5.054    3.205   33.322   26.339    5.087   29.697 
 2509   17.048    5.029    3.205   33.322   26.342    5.157   28.303 
 2511   17.222    4.979    3.200   33.322   26.348    5.157   27.275 
 2512   17.395    4.971    3.199   33.323   26.349    5.157   26.677 
 2513   17.569    4.968    3.199   33.323   26.349    5.157   26.382 
 2515   17.743    4.962    3.198   33.323   26.350    5.157   25.331 
 2517   17.916    4.952    3.198   33.324   26.352    5.389   24.592 
 2518   18.090    4.945    3.197   33.325   26.354    5.436   24.142 
 2519   18.264    4.944    3.197   33.325   26.354    5.459   23.788 
 2521   18.437    4.940    3.196   33.327   26.356    5.529   23.094 
 2522   18.611    4.939    3.196   33.328   26.357    5.552   22.839 
 2525   18.785    4.933    3.196   33.328   26.357    5.668   21.848 
 2526   18.958    4.932    3.195   33.328   26.357    5.761   21.527 
 2530   19.132    4.922    3.195   33.328   26.359    6.063   20.216 
 2531   19.306    4.922    3.194   33.328   26.359    6.063   19.919 
 2534   19.479    4.920    3.194   33.328   26.359    6.179   19.267 
 2536   19.653    4.914    3.194   33.329   26.360    6.063   18.705 
 2538   19.826    4.898    3.193   33.329   26.362    6.086   18.160 
 2540   20.000    4.855    3.190   33.333   26.370    6.179   17.761 
 2542   20.174    4.823    3.187   33.334   26.374    6.806   17.117 
 2544   20.347    4.800    3.185   33.336   26.379    6.806   16.556 
 2547   20.521    4.700    3.181   33.387   26.430    7.085   15.548 
 2548   20.695    4.619    3.175   33.399   26.448    7.085   15.207 
 2549   20.868    4.463    3.169   33.487   26.535    7.318   14.818 
 2550   21.042    4.304    3.157   33.508   26.568    7.318   14.439 
 2552   21.216    4.115    3.145   33.559   26.628    8.224   13.762 
 2553   21.389    4.008    3.139   33.598   26.670    8.409   13.509 
 2555   21.563    3.651    3.126   33.811   26.875   10.291   12.828 
 2556   21.737    3.515    3.118   33.857   26.925   10.314   12.317 
 2557   21.910    3.419    3.114   33.909   26.975   10.314   12.002 
 2558   22.084    3.283    3.108   33.979   27.044   10.477   11.609 
 2559   22.257    3.208    3.103   33.997   27.066   10.477   11.271 
 2561   22.431    3.160    3.101   34.015   27.084   10.477   10.662 
 2562   22.605    3.141    3.099   34.019   27.089   10.477   10.237 
 2563   22.778    3.133    3.098   34.021   27.091   10.477    9.902 
 2565   22.952    3.116    3.097   34.023   27.095   10.663    9.129 
 2567   23.126    3.112    3.097   34.024   27.096   10.663    8.700 
 2568   23.299    3.112    3.097   34.025   27.096   10.663    8.478 
 2570   23.473    3.112    3.097   34.025   27.096   10.663    8.110 
 2572   23.647    3.112    3.097   34.025   27.096   10.663    7.729 
 2573   23.820    3.112    3.097   34.025   27.097   10.663    7.560 
 2576   23.994    3.112    3.097   34.025   27.097   10.616    7.232 
 2578   24.168    3.120    3.100   34.052   27.118   10.616    6.969 
 2579   24.341    3.128    3.101   34.056   27.120   10.616    6.867 
 2581   24.515    3.138    3.103   34.070   27.130   10.198    6.716 
 2584   24.688    3.141    3.104   34.079   27.137    9.757    6.425 
 2586   24.862    3.142    3.105   34.089   27.145    9.432    6.168 
 2587   25.036    3.142    3.105   34.090   27.145    9.246    6.033 
 2589   25.209    3.142    3.107   34.114   27.165    9.176    5.836 
 2591   25.383    3.142    3.109   34.138   27.184    9.130    5.582 
 2593   25.557    3.142    3.109   34.138   27.184    9.037    5.320 
 2594   25.730    3.142    3.109   34.138   27.184    8.920    5.204 
 2596   25.904    3.142    3.109   34.138   27.184    8.665    4.996 
 2597   26.078    3.142    3.109   34.138   27.184    8.618    4.887 
 2599   26.425    3.126    3.109   34.154   27.198    8.595    4.589 
 2602   26.598    3.114    3.109   34.167   27.210    8.316    4.341 
 2603   26.772    3.114    3.109   34.167   27.210    8.316    4.246 
 2604   26.946    3.103    3.109   34.178   27.220    8.084    4.137 
 2606   27.119    3.081    3.108   34.189   27.230    7.875    3.929 
 2607   27.293    3.081    3.108   34.189   27.230    7.875    3.885 
 2609   27.467    3.081    3.108   34.189   27.230    7.875    3.730 
 2611   27.640    3.081    3.108   34.189   27.230    7.759    3.608 
 2612   27.814    3.081    3.108   34.189   27.230    7.689    3.516 
 2613   27.988    3.081    3.108   34.189   27.231    7.689    3.452 
 2615   28.161    3.081    3.108   34.189   27.231    7.341    3.339 
 2616   28.335    3.081    3.109   34.201   27.240    7.341    3.290 
 2618   28.508    3.101    3.113   34.228   27.260    7.062    3.194 
 2620   28.682    3.105    3.114   34.236   27.266    6.597    3.124 
 2621   28.856    3.105    3.114   34.236   27.266    6.365    3.078 
 2623   29.029    3.105    3.116   34.260   27.285    6.342    3.010 
 2624   29.203    3.105    3.117   34.272   27.295    6.365    2.955 
 2626   29.377    3.105    3.118   34.284   27.304    6.342    2.859 
 2627   29.550    3.105    3.118   34.284   27.304    6.202    2.796 
 2629   29.724    3.105    3.119   34.296   27.314    6.063    2.755 
 2631   29.898    3.099    3.120   34.315   27.329    6.063    2.734 
 2632   30.071    3.083    3.120   34.332   27.344    5.993    2.714 
 2634   30.245    3.058    3.120   34.358   27.368    5.575    2.655 
 2636   30.418    3.055    3.120   34.361   27.370    5.296    2.558 
 2637   30.592    3.055    3.120   34.361   27.370    4.924    2.511 
 2639   30.766    3.055    3.120   34.361   27.370    4.715    2.466 
 2641   30.939    3.052    3.120   34.364   27.373    4.599    2.402 
 2642   31.113    3.051    3.120   34.365   27.374    4.506    2.394 
 2644   31.287    3.051    3.120   34.365   27.374    4.344    2.341 
 2645   31.460    3.043    3.120   34.371   27.379    4.344    2.307 
 2648   31.634    3.034    3.119   34.374   27.382    4.227    2.273 
 2650   31.808    3.005    3.118   34.382   27.391    4.018    2.215 
 2651   31.981    2.995    3.117   34.388   27.397    4.018    2.198 
 2652   32.155    2.989    3.116   34.388   27.398    3.972    2.166 
 2654   32.328    2.983    3.116   34.390   27.399    3.972    2.126 
 2656   32.502    2.979    3.116   34.393   27.402    3.600    2.103 
 2658   32.676    2.961    3.115   34.399   27.409    3.484    2.072 
 2659   32.849    2.961    3.115   34.400   27.409    3.322    2.049 
 2661   33.023    2.960    3.115   34.400   27.410    3.019    2.027 
 2662   33.197    2.960    3.115   34.400   27.410    2.996    2.012 
 2663   33.370    2.960    3.115   34.400   27.410    2.927    1.990 
 2665   33.544    2.958    3.115   34.401   27.411    2.857    1.939 
 2667   33.718    2.958    3.115   34.402   27.411    2.857    1.924 
 2668   33.891    2.958    3.115   34.402   27.411    2.764    1.910 
 2669   34.065    2.958    3.115   34.402   27.411    2.764    1.896 
 2671   34.238    2.958    3.115   34.402   27.411    2.717    1.848 
 2672   34.412    2.958    3.115   34.402   27.411    2.717    1.848 
 2673   34.586    2.958    3.115   34.402   27.411    2.717    1.827 
 2675   34.759    2.958    3.115   34.402   27.411    2.578    1.814 
 2677   34.933    2.958    3.115   34.402   27.412    2.555    1.781 
 2678   35.107    2.956    3.115   34.402   27.412    2.578    1.781 
 2679   35.280    2.955    3.115   34.402   27.412    2.648    1.768 
 2681   35.627    2.954    3.115   34.404   27.413    2.648    1.697 
 2684   35.801    2.952    3.114   34.404   27.414    2.648    1.697 
 2685   35.975    2.949    3.114   34.405   27.415    2.578    1.691 
 2687   36.148    2.942    3.114   34.405   27.416    2.625    1.685 
 2688   36.322    2.942    3.114   34.405   27.416    2.625    1.660 
 2690   36.496    2.942    3.114   34.405   27.416    2.648    1.654 
 2693   36.669    2.942    3.114   34.405   27.416    2.532    1.635 
 2694   36.843    2.942    3.114   34.406   27.416    2.439    1.629 
 2696   37.017    2.942    3.114   34.406   27.416    2.392    1.605 
 2699   37.190    2.950    3.116   34.421   27.427    2.230    1.588 
 2701   37.364    2.960    3.118   34.435   27.438    2.183    1.570 
 2702   37.537    2.967    3.119   34.439   27.441    2.183    1.564 
 2704   37.711    2.973    3.120   34.443   27.443    2.113    1.547 
 2705   37.885    2.973    3.120   34.445   27.444    2.067    1.541 
 2708   38.058    2.973    3.120   34.445   27.444    1.695    1.513 
 2709   38.232    2.975    3.120   34.445   27.444    1.695    1.513 
 2711   38.406    2.980    3.121   34.446   27.445    1.672    1.497 
 2712   38.579    2.983    3.121   34.447   27.446    1.649    1.486 
 2713   38.753    2.985    3.122   34.449   27.447    1.625    1.469 
 2715   38.926    2.993    3.122   34.452   27.447    1.625    1.458 
 2716   39.100    2.996    3.123   34.456   27.447    1.625    1.448 
 2718   39.274    3.007    3.124   34.456   27.447    1.649    1.442 
 2719   39.447    3.023    3.125   34.456   27.448    1.625    1.437 
 2721   39.621    3.040    3.127   34.457   27.448    1.486    1.426 
 2722   39.795    3.053    3.128   34.458   27.449    1.486    1.426 
 2724   39.968    3.062    3.129   34.458   27.449    1.463    1.405 
 2725   40.142    3.065    3.130   34.459   27.450    1.463    1.395 
 2727   40.315    3.067    3.130   34.462   27.450    1.463    1.385 
 2728   40.489    3.068    3.130   34.464   27.450    1.463    1.380 
 2729   40.663    3.084    3.131   34.465   27.450    1.463    1.380 
 2730   40.836    3.115    3.134   34.467   27.450    1.463    1.375 
 2732   41.010    3.135    3.137   34.470   27.450    1.463    1.364 
 2733   41.184    3.153    3.138   34.475   27.451    1.463    1.344 
 2734   41.357    3.171    3.140   34.477   27.452    1.486    1.339 
 2736   41.531    3.202    3.143   34.478   27.452    1.486    1.330 
 2738   41.704    3.202    3.145   34.503   27.469    1.556    1.325 
 2740   42.052    3.202    3.146   34.514   27.478    1.486    1.310 
 2743   42.225    3.202    3.146   34.514   27.479    1.486    1.300 
 2745   42.399    3.202    3.146   34.514   27.479    1.556    1.291 
 2747   42.573    3.201    3.146   34.515   27.479    1.556    1.291 
 2749   42.746    3.191    3.145   34.515   27.481    1.486    1.286 
 2751   42.920    3.189    3.145   34.516   27.481    1.324    1.267 
 2752   43.093    3.189    3.145   34.516   27.481    1.254    1.267 
 2755   43.267    3.182    3.145   34.519   27.485    1.184    1.258 
 2756   43.441    3.176    3.145   34.522   27.488    1.161    1.253 
 2757   43.614    3.174    3.144   34.523   27.488    1.138    1.253 
 2759   43.788    3.171    3.144   34.529   27.494    1.114    1.244 
 2761   43.962    3.159    3.144   34.532   27.497    1.114    1.226 
 2762   44.135    3.150    3.143   34.535   27.500    1.068    1.226 
 2764   44.309    3.128    3.142   34.535   27.502    1.068    1.217 
 2765   44.482    3.113    3.140   34.536   27.504    1.068    1.217 
 2766   44.656    3.101    3.139   34.539   27.508    1.021    1.217 
 2767   44.830    3.096    3.139   34.541   27.510    1.021    1.217 
 2769   45.003    3.096    3.139   34.541   27.510    1.091    1.212 
 2770   45.177    3.096    3.139   34.541   27.510    1.021    1.208 
 2771   45.351    3.095    3.139   34.542   27.511    1.021    1.194 
 2772   45.524    3.095    3.139   34.542   27.511    1.091    1.194 
 2774   45.698    3.094    3.139   34.542   27.511    1.138    1.186 
 2775   45.871    3.091    3.139   34.543   27.512    1.138    1.181 
 2777   46.045    3.088    3.139   34.544   27.513    1.138    1.177 
 2778   46.219    3.086    3.138   34.545   27.514    1.138    1.173 
 2779   46.392    3.083    3.138   34.545   27.514    1.138    1.168 
 2781   46.566    3.080    3.138   34.545   27.515    1.091    1.164 
 2782   46.740    3.080    3.138   34.546   27.515    1.091    1.160 
 2784   46.913    3.078    3.138   34.546   27.516    1.068    1.160 
 2786   47.087    3.072    3.138   34.547   27.517    1.045    1.155 
 2787   47.260    3.069    3.138   34.547   27.517    1.045    1.155 
 2789   47.434    3.068    3.137   34.549   27.519    1.021    1.151 
 2791   47.608    3.067    3.137   34.549   27.519    1.045    1.151 
