NAFC_Y2K_HEADER
39673014  52 28.95 -047 11.71 2006-06-13 19:40 3873 S0281 014 V   stn 14       1
39673014 002535  8.00 A 08 #PTCSMFL------------            D 000 0000 0474 000 4
39673014 8 32 18 02 1008.0 009.5 008.0 04 04 27 07 06                          8
-- CHANNEL STATS -->
# span     scan =   2745.000,  7677.000
# span     pres =      1.420,   474.835
# span     temp =      4.021,     9.464
# span     cond =      3.251,     3.717
# span      sal =     34.480,    34.881
# span     sigt =     26.636,    27.673
# span     flor =      0.278,    10.663
# span      par =      0.967,   187.270
-- END --
-- HISTORY --> Thu Jun 22 14:23:06 2006
>SELECT_PROBE S
>READ # (DP) T C L F scan pres temp cond par flor
>STABILIZE_RESTRICT USING= pres 10.0 5 
>RESTRICT USING= pres 0.0 2000.0
>RESTRICT USING= cond 2.0 5.0
>RESTRICT USING= temp -2.0 20.0
>RESTRICT USING= scan 500.0 30000.0
>MEDIANFILTER pres 21 1
>MEDIANFILTER temp 21 1
>MEDIANFILTER cond 21 1
>MEDIANFILTER flor 21 1
>MEDIANFILTER par 21 1
>SELECT_DN USING= pres
>SALINITY PRESSURE=pres CONDUCTIVITY=cond TEMPERATURE=temp RESULT=sal
>RESTRICT USING= sal 29.0 36.0
>MEDIANFILTER sal 21 1
>SIGMAT SALINITY=sal TEMPERATURE=temp RESULT=sigt
>MEDIANFILTER sigt 21 1
>HISTORY_ON
>WRITEFILE .p???? scan pres temp cond sal sigt flor par
-- END --
 scan     pres     temp     cond      sal     sigt     flor      par 
-- DATA --
 2745    1.420    9.464    3.708   34.480   26.636    6.806  187.270 
 2746    1.593    9.464    3.715   34.552   26.693    6.435  181.810 
 2750    1.767    9.463    3.716   34.563   26.701    6.946  158.560 
 2753    2.114    9.464    3.716   34.562   26.700    7.596  147.800 
 2754    2.288    9.463    3.716   34.563   26.701    6.946  139.830 
 2755    2.462    9.463    3.716   34.563   26.701    6.923  132.280 
 2756    2.635    9.463    3.716   34.563   26.701    6.923  126.540 
 2757    2.809    9.463    3.716   34.563   26.701    6.923  121.950 
 2759    2.982    9.463    3.716   34.563   26.701    6.946  114.520 
 2760    3.156    9.463    3.716   34.563   26.701    6.946  110.770 
 2762    3.330    9.462    3.716   34.564   26.702    6.969  103.250 
 2763    3.503    9.462    3.716   34.564   26.702    7.015   99.875 
 2765    3.677    9.462    3.716   34.564   26.702    7.039   93.444 
 2766    3.851    9.460    3.716   34.565   26.703    7.062   89.719 
 2768    4.024    9.460    3.716   34.565   26.703    7.085   83.323 
 2770    4.198    9.458    3.716   34.567   26.705    7.085   78.246 
 2772    4.372    9.457    3.716   34.568   26.706    7.085   74.574 
 2773    4.545    9.457    3.716   34.568   26.706    7.085   73.208 
 2775    4.719    9.457    3.716   34.568   26.706    7.085   70.811 
 2777    4.893    9.456    3.716   34.568   26.706    7.085   68.747 
 2779    5.066    9.455    3.716   34.568   26.706    7.085   65.763 
 2781    5.240    9.455    3.716   34.568   26.706    7.085   63.142 
 2782    5.414    9.455    3.716   34.568   26.706    7.108   61.757 
 2784    5.587    9.455    3.716   34.568   26.706    7.108   59.295 
 2786    5.761    9.455    3.716   34.568   26.706    7.108   56.931 
 2788    5.935    9.455    3.716   34.568   26.706    7.108   55.682 
 2791    6.108    9.456    3.716   34.568   26.706    7.155   54.865 
 2793    6.282    9.456    3.716   34.568   26.706    7.155   54.865 
 2796    6.456    9.456    3.716   34.568   26.706    7.201   54.059 
 2797    6.629    9.456    3.716   34.568   26.706    7.178   53.463 
 2800    6.803    9.456    3.716   34.568   26.706    7.178   51.713 
 2802    6.977    9.456    3.716   34.568   26.706    7.201   49.652 
 2804    7.150    9.456    3.716   34.568   26.706    7.201   47.849 
 2805    7.324    9.456    3.716   34.568   26.706    7.201   46.799 
 2807    7.497    9.456    3.716   34.568   26.706    7.225   45.100 
 2809    7.671    9.456    3.716   34.567   26.706    7.225   43.624 
 2810    7.845    9.456    3.716   34.567   26.706    7.294   42.983 
 2812    8.018    9.456    3.716   34.567   26.706    7.480   41.730 
 2813    8.192    9.456    3.716   34.567   26.706    7.573   41.118 
 2815    8.366    9.456    3.716   34.567   26.705    7.643   39.772 
 2816    8.539    9.456    3.716   34.567   26.705    7.643   39.188 
 2818    8.713    9.456    3.716   34.567   26.705    7.712   37.765 
 2819    8.887    9.456    3.716   34.567   26.705    7.829   37.073 
 2821    9.060    9.456    3.716   34.567   26.705    7.968   35.728 
 2823    9.234    9.456    3.716   34.567   26.705    8.061   34.303 
 2826    9.408    9.457    3.716   34.567   26.705    8.433   32.213 
 2828    9.581    9.457    3.716   34.567   26.705    8.967   31.159 
 2830    9.755    9.458    3.716   34.567   26.705    9.106   30.028 
 2834    9.929    9.460    3.716   34.567   26.705    9.594   28.198 
 2837   10.102    9.461    3.716   34.567   26.705    9.641   27.074 
 2839   10.276    9.462    3.717   34.570   26.707    9.734   26.382 
 2841   10.450    9.462    3.717   34.570   26.707    9.827   25.708 
 2842   10.623    9.462    3.717   34.571   26.707    9.850   25.331 
 2844   10.797    9.462    3.717   34.571   26.707    9.850   24.502 
 2845   10.971    9.462    3.717   34.571   26.707    9.850   24.142 
 2847   11.318    9.462    3.717   34.571   26.707    9.920   23.438 
 2849   11.491    9.461    3.717   34.571   26.708    9.966   22.755 
 2850   11.665    9.460    3.717   34.572   26.708   10.012   22.338 
 2851   11.839    9.460    3.717   34.572   26.708   10.059   22.010 
 2853   12.012    9.460    3.717   34.572   26.708   10.152   21.133 
 2854   12.186    9.460    3.717   34.572   26.709   10.268   20.746 
 2855   12.360    9.460    3.717   34.572   26.709   10.291   20.366 
 2856   12.533    9.460    3.717   34.572   26.709   10.314   19.993 
 2858   12.707    9.459    3.717   34.572   26.709   10.314   19.125 
 2859   12.881    9.458    3.717   34.572   26.709   10.291   18.636 
 2860   13.054    9.458    3.717   34.572   26.709   10.314   18.160 
 2861   13.228    9.458    3.717   34.572   26.709   10.314   17.761 
 2862   13.402    9.458    3.717   34.573   26.709   10.338   17.308 
 2864   13.575    9.457    3.717   34.573   26.709   10.407   16.434 
 2865   13.749    9.457    3.717   34.573   26.709   10.338   16.014 
 2866   13.923    9.457    3.717   34.573   26.709   10.384   15.548 
 2868   14.096    9.458    3.717   34.573   26.709   10.361   14.818 
 2870   14.270    9.458    3.717   34.573   26.709   10.338   14.070 
 2871   14.443    9.459    3.717   34.573   26.710   10.314   13.813 
 2874   14.617    9.459    3.717   34.573   26.710   10.291   13.019 
 2876   14.791    9.459    3.717   34.573   26.710   10.222   12.640 
 2880   14.964    9.458    3.717   34.573   26.710   10.222   12.091 
 2886   15.138    9.457    3.717   34.572   26.710   10.222   11.652 
 2889   15.312    9.457    3.717   34.572   26.710   10.222   11.566 
 2892   15.485    9.455    3.717   34.572   26.710   10.291   11.312 
 2894   15.659    9.455    3.717   34.572   26.710   10.338   11.064 
 2896   15.833    9.451    3.716   34.572   26.710   10.431   10.781 
 2897   16.006    9.451    3.716   34.572   26.710   10.477   10.662 
 2899   16.180    9.448    3.716   34.572   26.710   10.570   10.275 
 2900   16.354    9.448    3.716   34.572   26.711   10.500   10.125 
 2902   16.527    9.448    3.716   34.572   26.711   10.500    9.721 
 2903   16.701    9.447    3.716   34.573   26.711   10.524    9.473 
 2904   16.875    9.447    3.716   34.573   26.711   10.593    9.231 
 2905   17.048    9.447    3.716   34.573   26.711   10.593    9.028 
 2906   17.222    9.447    3.716   34.572   26.711   10.593    8.797 
 2907   17.395    9.446    3.716   34.572   26.711   10.593    8.573 
 2908   17.743    9.444    3.716   34.572   26.712   10.593    8.323 
 2910   17.916    9.443    3.716   34.573   26.712   10.593    7.787 
 2911   18.090    9.441    3.716   34.574   26.713   10.593    7.588 
 2912   18.264    9.440    3.716   34.574   26.714   10.593    7.312 
 2913   18.437    9.439    3.716   34.575   26.715   10.593    7.073 
 2914   18.611    9.439    3.716   34.577   26.716   10.663    6.816 
 2916   18.958    9.438    3.716   34.578   26.717   10.663    6.448 
 2918   19.132    9.436    3.715   34.579   26.718   10.593    6.078 
 2919   19.306    9.436    3.715   34.579   26.718   10.593    5.901 
 2920   19.479    9.433    3.715   34.580   26.719   10.570    5.750 
 2922   19.653    9.397    3.713   34.585   26.729   10.570    5.521 
 2925   19.826    9.361    3.710   34.587   26.737   10.500    5.320 
 2928   20.000    9.342    3.708   34.587   26.740   10.500    5.204 
 2934   20.174    9.333    3.707   34.587   26.741   10.500    5.146 
 2940   20.347    9.324    3.706   34.588   26.743   10.524    5.127 
 2943   20.521    9.322    3.706   34.588   26.744   10.524    5.033 
 2945   20.695    9.321    3.706   34.588   26.744   10.454    4.959 
 2946   20.868    9.321    3.706   34.589   26.745   10.454    4.887 
 2947   21.042    9.315    3.706   34.591   26.748   10.454    4.797 
 2949   21.389    9.311    3.705   34.594   26.750   10.268    4.589 
 2951   21.737    9.231    3.701   34.614   26.779   10.036    4.373 
 2953   22.084    9.150    3.694   34.623   26.799    9.803    4.153 
 2954   22.257    9.127    3.692   34.626   26.806    9.664    4.047 
 2955   22.431    9.111    3.689   34.626   26.808    9.501    3.943 
 2956   22.605    9.092    3.689   34.626   26.811    9.478    3.842 
 2957   22.778    9.026    3.684   34.628   26.823    9.432    3.730 
 2958   22.952    8.967    3.680   34.628   26.833    9.362    3.622 
 2960   23.299    8.903    3.672   34.630   26.844    8.758    3.452 
 2962   23.473    8.832    3.667   34.630   26.855    8.711    3.314 
 2963   23.647    8.793    3.663   34.630   26.862    8.618    3.241 
 2965   23.820    8.725    3.656   34.630   26.872    8.526    3.135 
 2966   23.994    8.713    3.654   34.630   26.874    8.502    3.089 
 2968   24.168    8.710    3.653   34.630   26.875    8.409    3.022 
 2971   24.341    8.710    3.653   34.632   26.876    8.177    2.977 
 2978   24.515    8.699    3.652   34.632   26.878    7.805    2.966 
 2986   24.688    8.605    3.645   34.633   26.893    6.295    2.944 
 2988   24.862    8.579    3.641   34.632   26.897    5.343    2.901 
 2990   25.036    8.531    3.638   34.632   26.903    5.017    2.838 
 2991   25.209    8.525    3.636   34.630   26.903    5.017    2.806 
 2992   25.383    8.524    3.636   34.629   26.903    4.808    2.786 
 2993   25.557    8.523    3.636   34.629   26.903    4.715    2.724 
 2994   25.904    8.523    3.636   34.629   26.904    4.599    2.714 
 2995   26.078    8.522    3.636   34.629   26.904    4.553    2.684 
 2996   26.251    8.520    3.636   34.629   26.904    4.460    2.635 
 2997   26.425    8.519    3.636   34.629   26.904    4.413    2.577 
 2998   26.598    8.518    3.636   34.630   26.904    4.367    2.521 
 2999   26.946    8.514    3.635   34.630   26.905    4.344    2.475 
 3000   27.119    8.509    3.635   34.630   26.906    4.320    2.429 
 3001   27.467    8.503    3.634   34.630   26.907    4.320    2.376 
 3002   27.640    8.501    3.634   34.630   26.907    4.251    2.341 
 3003   27.814    8.501    3.634   34.630   26.907    4.251    2.290 
 3004   27.988    8.500    3.634   34.630   26.907    4.251    2.264 
 3005   28.161    8.499    3.634   34.630   26.907    4.251    2.215 
 3006   28.335    8.497    3.634   34.629   26.907    4.251    2.182 
 3007   28.682    8.493    3.633   34.629   26.908    4.251    2.150 
 3010   28.856    8.488    3.633   34.629   26.909    4.251    2.080 
 3011   29.029    8.488    3.633   34.629   26.909    4.251    2.065 
 3013   29.203    8.488    3.633   34.630   26.909    4.251    2.057 
 3036   29.377    8.473    3.631   34.630   26.911    3.577    2.080 
 3038   29.550    8.462    3.630   34.630   26.913    3.228    2.049 
 3039   29.724    8.459    3.630   34.630   26.914    3.205    2.034 
 3040   29.898    8.456    3.630   34.630   26.915    3.182    2.012 
 3041   30.071    8.450    3.629   34.630   26.916    3.112    1.968 
 3042   30.245    8.442    3.628   34.631   26.917    3.066    1.960 
 3043   30.418    8.428    3.628   34.631   26.919    2.694    1.932 
 3044   30.766    8.400    3.625   34.634   26.926    2.694    1.896 
 3045   30.939    8.375    3.623   34.635   26.931    2.508    1.875 
 3046   31.287    8.362    3.622   34.635   26.933    2.346    1.862 
 3047   31.460    8.352    3.621   34.636   26.935    2.322    1.827 
 3048   31.808    8.340    3.620   34.636   26.937    2.276    1.814 
 3049   31.981    8.339    3.620   34.637   26.938    2.206    1.774 
 3050   32.328    8.337    3.620   34.639   26.939    2.183    1.768 
 3051   32.502    8.336    3.620   34.639   26.940    2.183    1.748 
 3052   32.849    8.335    3.620   34.640   26.941    2.183    1.729 
 3053   33.370    8.330    3.620   34.640   26.942    2.137    1.716 
 3055   33.718    8.326    3.619   34.641   26.943    2.113    1.685 
 3056   33.891    8.324    3.619   34.641   26.943    2.113    1.672 
 3057   34.065    8.323    3.619   34.644   26.946    2.113    1.654 
 3058   34.238    8.320    3.619   34.645   26.947    2.113    1.654 
 3060   34.412    8.305    3.618   34.648   26.952    2.113    1.623 
 3061   34.586    8.305    3.618   34.648   26.952    2.137    1.612 
 3063   34.759    8.305    3.618   34.648   26.952    2.206    1.600 
 3064   34.933    8.305    3.618   34.648   26.952    2.206    1.600 
 3065   35.107    8.305    3.618   34.648   26.952    2.206    1.600 
 3089   35.280    8.272    3.615   34.648   26.957    2.160    1.629 
 3092   35.627    8.249    3.613   34.650   26.961    2.113    1.617 
 3094   35.975    8.245    3.613   34.650   26.962    2.044    1.588 
 3095   36.148    8.245    3.613   34.653   26.964    2.044    1.576 
 3096   36.322    8.245    3.613   34.653   26.964    2.020    1.564 
 3097   36.496    8.245    3.613   34.653   26.964    1.997    1.541 
 3098   36.669    8.245    3.613   34.653   26.965    1.997    1.541 
 3099   36.843    8.245    3.613   34.653   26.965    1.974    1.525 
 3100   37.190    8.245    3.613   34.653   26.965    1.974    1.508 
 3101   37.364    8.245    3.613   34.653   26.965    1.974    1.508 
 3102   37.711    8.245    3.613   34.653   26.965    1.974    1.497 
 3104   38.058    8.247    3.614   34.653   26.965    1.951    1.486 
 3105   38.232    8.282    3.616   34.661   26.965    1.904    1.464 
 3106   38.406    8.304    3.621   34.679   26.976    1.904    1.458 
 3107   38.579    8.304    3.622   34.689   26.983    1.904    1.448 
 3108   38.753    8.304    3.622   34.690   26.984    1.904    1.442 
 3109   39.100    8.304    3.622   34.690   26.984    1.881    1.432 
 3110   39.274    8.304    3.622   34.690   26.984    1.881    1.426 
 3112   39.447    8.304    3.622   34.690   26.984    1.904    1.416 
 3114   39.621    8.314    3.623   34.690   26.984    1.904    1.416 
 3115   39.795    8.316    3.624   34.691   26.985    1.928    1.416 
 3118   39.968    8.313    3.623   34.699   26.990    1.951    1.416 
 3131   40.142    8.282    3.621   34.700   26.996    1.974    1.421 
 3137   40.315    8.253    3.619   34.702   27.002    1.928    1.421 
 3139   40.489    8.251    3.619   34.706   27.005    1.858    1.421 
 3140   40.663    8.251    3.619   34.706   27.005    1.858    1.421 
 3141   40.836    8.247    3.618   34.706   27.006    1.858    1.421 
 3143   41.010    8.243    3.618   34.707   27.007    1.858    1.411 
 3144   41.184    8.242    3.618   34.707   27.008    1.858    1.411 
 3145   41.357    8.240    3.618   34.707   27.008    1.835    1.400 
 3146   41.531    8.238    3.618   34.708   27.009    1.858    1.395 
 3147   41.704    8.232    3.617   34.709   27.011    1.835    1.395 
 3148   41.878    8.219    3.616   34.709   27.013    1.835    1.390 
 3149   42.225    8.209    3.615   34.709   27.014    1.835    1.380 
 3151   42.573    8.199    3.615   34.711   27.017    1.811    1.370 
 3152   42.746    8.199    3.614   34.711   27.017    1.788    1.364 
 3154   42.920    8.194    3.614   34.717   27.022    1.765    1.354 
 3155   43.267    8.184    3.614   34.717   27.024    1.742    1.354 
 3156   43.441    8.184    3.614   34.718   27.025    1.718    1.354 
 3158   43.614    8.182    3.614   34.718   27.025    1.718    1.339 
 3159   43.788    8.181    3.614   34.721   27.028    1.695    1.339 
 3160   43.962    8.176    3.613   34.721   27.028    1.649    1.334 
 3161   44.135    8.176    3.613   34.723   27.030    1.625    1.330 
 3162   44.309    8.166    3.612   34.724   27.032    1.556    1.330 
 3163   44.482    8.154    3.612   34.726   27.036    1.556    1.330 
 3164   44.656    8.144    3.611   34.726   27.038    1.509    1.325 
 3166   44.830    8.127    3.610   34.726   27.040    1.486    1.325 
 3167   45.003    8.122    3.609   34.727   27.041    1.486    1.325 
 3169   45.177    8.118    3.609   34.728   27.042    1.463    1.320 
 3171   45.351    8.113    3.608   34.728   27.043    1.440    1.315 
 3173   45.524    8.112    3.608   34.728   27.043    1.486    1.315 
 3175   45.698    8.111    3.608   34.728   27.044    1.463    1.310 
 3178   45.871    8.111    3.608   34.728   27.044    1.463    1.310 
 3184   46.045    8.111    3.608   34.729   27.044    1.324    1.305 
 3186   46.219    8.112    3.608   34.732   27.047    1.324    1.305 
 3187   46.392    8.112    3.608   34.734   27.048    1.300    1.305 
 3191   46.566    8.112    3.609   34.734   27.048    1.254    1.300 
 3193   46.740    8.112    3.609   34.735   27.049    1.184    1.296 
 3196   46.913    8.112    3.609   34.735   27.049    1.184    1.296 
 3197   47.087    8.112    3.609   34.735   27.049    1.207    1.296 
 3199   47.434    8.111    3.609   34.737   27.051    1.184    1.291 
 3201   47.608    8.110    3.609   34.737   27.051    1.184    1.286 
 3203   47.781    8.104    3.608   34.737   27.052    1.184    1.281 
 3204   47.955    8.100    3.608   34.737   27.052    1.184    1.281 
 3205   48.129    8.097    3.608   34.737   27.053    1.184    1.277 
 3207   48.476    8.076    3.606   34.737   27.056    1.254    1.272 
 3208   48.649    8.059    3.604   34.737   27.059    1.254    1.272 
 3209   48.823    8.042    3.603   34.737   27.061    1.254    1.267 
 3211   49.170    8.016    3.600   34.737   27.065    1.277    1.267 
 3213   49.344    7.994    3.598   34.738   27.069    1.300    1.267 
 3214   49.518    7.981    3.597   34.738   27.071    1.347    1.267 
 3215   49.691    7.971    3.596   34.738   27.073    1.370    1.267 
 3217   50.038    7.957    3.595   34.738   27.075    1.416    1.267 
 3219   50.212    7.944    3.593   34.738   27.077    1.416    1.267 
 3220   50.386    7.936    3.593   34.738   27.078    1.416    1.267 
 3221   50.559    7.926    3.592   34.738   27.080    1.416    1.267 
 3222   50.733    7.919    3.591   34.737   27.080    1.440    1.267 
 3224   50.906    7.911    3.591   34.738   27.082    1.440    1.267 
 3226   51.080    7.903    3.590   34.738   27.083    1.440    1.267 
 3227   51.254    7.899    3.590   34.738   27.084    1.440    1.267 
 3229   51.427    7.890    3.589   34.738   27.085    1.416    1.263 
 3231   51.601    7.866    3.587   34.739   27.089    1.440    1.258 
 3235   51.775    7.859    3.586   34.739   27.090    1.440    1.253 
 3237   51.948    7.857    3.586   34.739   27.091    1.416    1.253 
 3244   52.122    7.853    3.585   34.739   27.091    1.416    1.253 
 3247   52.295    7.843    3.584   34.739   27.093    1.416    1.253 
 3250   52.469    7.829    3.583   34.739   27.095    1.416    1.253 
 3252   52.643    7.822    3.583   34.739   27.096    1.370    1.253 
 3253   52.816    7.821    3.583   34.739   27.096    1.347    1.249 
 3255   52.990    7.798    3.581   34.739   27.099    1.277    1.249 
