NAFC_Y2K_HEADER
39673005  48 32.36 -049 56.74 2006-06-11 10:12 0224 S0281 005 V   tn 5         1
39673005 001195  8.00 A 08 #PTCSMFL------------            D 000 0000 0219 000 4
39673005 9 14 27 61 1013.0 007.0 007.0 04 06 14 04 04                          8
-- CHANNEL STATS -->
# span     scan =   2941.000,  5091.000
# span     pres =      2.809,   219.775
# span     temp =     -1.243,     5.941
# span     cond =      2.663,     3.190
# span      sal =     32.275,    34.317
# span     sigt =     25.408,    27.381
# span     flor =      0.278,     2.044
# span      par =      0.801,    67.488
-- END --
-- HISTORY --> Thu Jun 22 14:22:46 2006
>SELECT_PROBE S
>READ # (DP) T C L F scan pres temp cond par flor
>STABILIZE_RESTRICT USING= pres 10.0 5 
>RESTRICT USING= pres 0.0 2000.0
>RESTRICT USING= cond 2.0 5.0
>RESTRICT USING= temp -2.0 20.0
>RESTRICT USING= scan 500.0 30000.0
>MEDIANFILTER pres 21 1
>MEDIANFILTER temp 21 1
>MEDIANFILTER cond 21 1
>MEDIANFILTER flor 21 1
>MEDIANFILTER par 21 1
>SELECT_DN USING= pres
>SALINITY PRESSURE=pres CONDUCTIVITY=cond TEMPERATURE=temp RESULT=sal
>RESTRICT USING= sal 29.0 36.0
>MEDIANFILTER sal 21 1
>SIGMAT SALINITY=sal TEMPERATURE=temp RESULT=sigt
>MEDIANFILTER sigt 21 1
>HISTORY_ON
>WRITEFILE .p???? scan pres temp cond sal sigt flor par
-- END --
 scan     pres     temp     cond      sal     sigt     flor      par 
-- DATA --
 2941    2.809    5.936    3.189   32.275   25.408    1.765   66.743 
 2943    2.982    5.936    3.189   32.275   25.408    1.718   67.488 
 2961    3.156    5.922    3.188   32.277   25.411    0.766   66.497 
 2974    3.330    5.921    3.188   32.278   25.412    2.020   62.677 
 3004    3.503    5.929    3.189   32.282   25.414    0.766   60.179 
 3006    3.677    5.930    3.189   32.281   25.413    0.766   59.735 
 3008    3.851    5.930    3.189   32.281   25.413    0.812   59.515 
 3010    4.024    5.931    3.189   32.280   25.412    0.836   58.858 
 3012    4.198    5.931    3.189   32.280   25.412    1.997   57.994 
 3014    4.372    5.931    3.189   32.279   25.412    2.044   56.096 
 3016    4.545    5.931    3.189   32.279   25.412    2.044   53.860 
 3018    4.719    5.931    3.189   32.279   25.412    2.044   52.483 
 3020    4.893    5.931    3.189   32.279   25.412    2.044   52.097 
 3024    5.066    5.932    3.189   32.279   25.412    1.928   51.904 
 3030    5.240    5.932    3.189   32.279   25.412    1.788   50.020 
 3036    5.414    5.931    3.189   32.279   25.412    1.695   49.468 
 3042    5.587    5.931    3.189   32.279   25.412    1.649   48.922 
 3045    5.761    5.931    3.189   32.279   25.412    1.625   47.321 
 3046    5.935    5.931    3.189   32.279   25.412    1.649   46.626 
 3049    6.108    5.933    3.189   32.279   25.412    1.649   45.100 
 3050    6.282    5.935    3.190   32.279   25.412    1.649   44.603 
 3052    6.456    5.937    3.190   32.279   25.412    1.649   43.624 
 3053    6.629    5.938    3.190   32.280   25.412    1.695   43.302 
 3055    6.803    5.940    3.190   32.280   25.412    1.742   41.730 
 3056    6.977    5.940    3.190   32.280   25.412    1.811   40.966 
 3057    7.150    5.940    3.190   32.280   25.412    1.858   40.815 
 3060    7.324    5.941    3.190   32.281   25.412    1.858   39.919 
 3061    7.497    5.941    3.190   32.281   25.412    1.858   39.772 
 3063    7.671    5.941    3.190   32.281   25.412    1.858   39.333 
 3065    7.845    5.941    3.190   32.281   25.412    1.858   38.899 
 3068    8.018    5.941    3.190   32.281   25.412    1.858   38.187 
 3071    8.192    5.940    3.190   32.281   25.412    1.788   37.487 
 3075    8.366    5.939    3.190   32.281   25.412    1.718   37.349 
 3078    8.539    5.933    3.190   32.281   25.413    1.672   37.349 
 3083    8.713    5.927    3.189   32.281   25.414    1.509   37.211 
 3086    8.887    5.924    3.189   32.281   25.414    1.486   37.211 
 3089    9.060    5.922    3.189   32.282   25.415    1.370   37.073 
 3091    9.234    5.922    3.189   32.282   25.415    1.347   36.664 
 3093    9.408    5.916    3.189   32.283   25.417    1.347   35.993 
 3095    9.581    5.916    3.188   32.284   25.417    1.324   35.333 
 3096    9.755    5.915    3.188   32.284   25.418    1.300   35.073 
 3098    9.929    5.914    3.188   32.284   25.418    1.277   34.051 
 3099   10.102    5.914    3.188   32.285   25.419    1.277   33.551 
 3101   10.276    5.911    3.188   32.286   25.419    1.254   32.936 
 3102   10.450    5.911    3.188   32.286   25.419    1.254   32.453 
 3103   10.623    5.910    3.188   32.286   25.419    1.207   32.095 
 3104   10.797    5.907    3.188   32.288   25.422    1.207   31.740 
 3106   11.144    5.900    3.187   32.289   25.423    1.207   31.044 
 3107   11.318    5.873    3.186   32.291   25.428    1.161   30.701 
 3109   11.491    5.815    3.182   32.293   25.437    1.161   29.917 
 3110   11.665    5.807    3.180   32.298   25.441    1.161   29.261 
 3111   11.839    5.801    3.180   32.299   25.443    1.161   28.938 
 3112   12.012    5.800    3.179   32.300   25.444    1.138   28.408 
 3114   12.186    5.788    3.179   32.303   25.448    1.091   27.682 
 3116   12.360    5.735    3.176   32.308   25.458    1.068   27.074 
 3117   12.533    5.714    3.173   32.313   25.464    1.068   26.875 
 3118   12.707    5.680    3.171   32.317   25.471    1.068   26.677 
 3120   12.881    5.609    3.167   32.335   25.494    1.021   26.382 
 3122   13.054    5.400    3.153   32.336   25.519    0.998   26.285 
 3124   13.228    5.299    3.142   32.337   25.531    0.952   26.285 
 3128   13.402    5.290    3.140   32.345   25.538    0.952   26.285 
 3132   13.575    5.258    3.138   32.351   25.547    0.952   26.188 
 3136   13.749    5.244    3.136   32.379   25.570    0.952   25.708 
 3139   13.923    5.073    3.127   32.395   25.603    1.021   25.144 
 3142   14.096    4.783    3.103   32.398   25.637    1.021   24.867 
 3144   14.270    4.757    3.100   32.404   25.644    1.045   24.684 
 3146   14.443    4.519    3.086   32.442   25.699    1.045   24.411 
 3147   14.617    4.416    3.078   32.443   25.711    1.021   24.231 
 3148   14.791    4.335    3.070   32.446   25.722    1.021   24.053 
 3150   14.964    4.258    3.063   32.448   25.731    0.998   23.612 
 3151   15.138    4.218    3.059   32.448   25.735    0.952   23.266 
 3152   15.312    4.190    3.057   32.450   25.740    0.952   23.094 
 3153   15.485    4.169    3.055   32.454   25.745    0.952   22.839 
 3154   15.659    4.163    3.054   32.460   25.750    0.952   22.421 
 3155   15.833    4.162    3.054   32.465   25.754    0.952   22.174 
 3157   16.180    4.144    3.053   32.466   25.756    0.952   21.527 
 3159   16.354    4.070    3.050   32.466   25.764    0.928   20.977 
 3160   16.527    4.004    3.044   32.471   25.775    0.928   20.746 
 3161   16.701    3.990    3.042   32.471   25.776    0.928   20.517 
 3162   16.875    3.984    3.041   32.481   25.784    0.928   20.291 
 3163   17.048    3.959    3.039   32.486   25.791    0.928   20.067 
 3164   17.222    3.935    3.039   32.490   25.796    0.928   19.845 
 3166   17.395    3.935    3.039   32.490   25.796    0.928   19.482 
 3167   17.569    3.935    3.039   32.490   25.796    0.952   19.338 
 3170   17.743    3.935    3.039   32.490   25.796    0.975   18.844 
 3171   17.916    3.935    3.039   32.490   25.796    0.975   18.705 
 3174   18.090    3.935    3.039   32.490   25.796    0.975   18.431 
 3175   18.264    3.935    3.043   32.537   25.833    0.975   18.363 
 3178   18.437    3.938    3.044   32.545   25.840    0.975   18.093 
 3179   18.611    3.938    3.044   32.546   25.840    0.975   18.026 
 3183   18.785    3.975    3.048   32.556   25.845    0.975   17.631 
 3184   18.958    3.978    3.051   32.573   25.853    0.975   17.566 
 3186   19.132    4.004    3.052   32.574   25.856    0.952   17.244 
 3188   19.306    4.021    3.054   32.581   25.857    0.928   16.991 
 3190   19.479    4.092    3.060   32.581   25.859    0.928   16.679 
 3191   19.653    4.111    3.061   32.588   25.860    0.928   16.556 
 3194   20.000    4.111    3.064   32.609   25.873    0.928   16.074 
 3196   20.174    4.060    3.063   32.609   25.878    0.928   15.838 
 3198   20.347    4.060    3.063   32.609   25.878    0.928   15.663 
 3200   20.521    4.060    3.063   32.609   25.878    0.928   15.548 
 3201   20.695    4.060    3.063   32.609   25.878    0.928   15.490 
 3203   20.868    4.060    3.063   32.609   25.878    0.952   15.376 
 3206   21.042    3.812    3.049   32.609   25.903    0.952   15.376 
 3208   21.216    3.436    3.014   32.609   25.938    0.952   15.319 
 3210   21.389    3.220    2.995   32.609   25.957    0.952   15.207 
 3213   21.563    2.941    2.968   32.626   25.995    0.975   15.094 
 3215   21.737    2.854    2.960   32.626   25.998    0.998   15.039 
 3217   21.910    2.795    2.952   32.626   25.998    1.068   14.493 
 3219   22.084    2.744    2.948   32.608   25.998    1.114   14.227 
 3221   22.257    2.741    2.947   32.608   25.998    1.138   14.018 
 3223   22.431    2.728    2.947   32.607   26.000    1.161   13.813 
 3225   22.605    2.723    2.946   32.607   26.000    1.184   13.560 
 3226   22.778    2.706    2.946   32.607   26.001    1.207   13.360 
 3227   22.952    2.704    2.946   32.607   26.003    1.207   13.262 
 3228   23.126    2.693    2.944   32.607   26.008    1.207   13.164 
 3230   23.299    2.563    2.936   32.607   26.011    1.230   12.875 
 3231   23.473    2.537    2.932   32.607   26.014    1.230   12.733 
 3233   23.647    2.510    2.930   32.607   26.016    1.230   12.546 
 3234   23.820    2.498    2.929   32.608   26.018    1.230   12.408 
 3235   23.994    2.490    2.928   32.608   26.018    1.230   12.271 
 3236   24.168    2.487    2.928   32.609   26.020    1.254   12.181 
 3238   24.515    2.484    2.928   32.610   26.020    1.277   11.958 
 3240   24.688    2.484    2.928   32.610   26.020    1.277   11.782 
 3241   24.862    2.484    2.928   32.614   26.023    1.277   11.695 
 3243   25.036    2.468    2.928   32.616   26.026    1.277   11.481 
 3244   25.209    2.461    2.927   32.620   26.031    1.277   11.354 
 3246   25.383    2.441    2.925   32.620   26.032    1.277   11.105 
 3247   25.557    2.431    2.924   32.626   26.037    1.277   10.983 
 3249   25.904    2.413    2.924   32.632   26.040    1.277   10.781 
 3252   26.078    2.461    2.928   32.632   26.044    1.277   10.467 
 3253   26.251    2.463    2.930   32.650   26.054    1.277   10.390 
 3254   26.425    2.468    2.930   32.655   26.057    1.300   10.313 
 3256   26.598    2.468    2.933   32.682   26.079    1.324   10.087 
 3258   26.772    2.472    2.933   32.686   26.082    1.324   10.013 
 3261   26.946    2.472    2.934   32.694   26.084    1.324    9.721 
 3262   27.119    2.472    2.934   32.694   26.089    1.324    9.685 
 3265   27.293    2.601    2.947   32.701   26.089    1.324    9.578 
 3267   27.467    2.601    2.947   32.722   26.093    1.324    9.543 
 3269   27.640    2.637    2.950   32.722   26.095    1.277    9.299 
 3271   27.814    2.669    2.951   32.722   26.097    1.277    9.231 
 3273   27.988    2.696    2.955   32.722   26.098    1.254    9.196 
 3275   28.161    2.702    2.957   32.729   26.100    1.254    9.095 
 3277   28.335    2.713    2.957   32.741   26.106    1.207    8.962 
 3279   28.508    2.714    2.959   32.752   26.111    1.184    8.797 
 3280   28.682    2.714    2.959   32.752   26.112    1.161    8.765 
 3283   28.856    2.738    2.961   32.753   26.112    1.161    8.447 
 3284   29.029    2.772    2.964   32.753   26.112    1.161    8.354 
 3285   29.203    2.772    2.964   32.754   26.112    1.161    8.323 
 3286   29.377    2.772    2.964   32.754   26.112    1.184    8.231 
 3288   29.550    2.772    2.964   32.754   26.112    1.161    8.110 
 3290   29.724    2.772    2.964   32.754   26.112    1.161    7.961 
 3291   29.898    2.772    2.964   32.754   26.114    1.161    7.845 
 3293   30.071    2.772    2.964   32.754   26.115    1.114    7.758 
 3294   30.245    2.772    2.964   32.754   26.115    1.114    7.672 
 3296   30.418    2.484    2.952   32.819   26.187    1.114    7.532 
 3298   30.592    2.456    2.943   32.820   26.190    1.068    7.476 
 3299   30.766    2.379    2.942   32.830   26.205    1.068    7.476 
 3301   30.939    2.370    2.939   32.858   26.228    1.114    7.421 
 3302   31.113    2.370    2.939   32.859   26.228    1.114    7.421 
 3305   31.287    2.370    2.939   32.859   26.228    1.114    7.178 
 3307   31.460    2.370    2.939   32.859   26.228    1.114    7.099 
 3309   31.634    2.379    2.940   32.861   26.230    1.114    7.047 
 3310   31.808    2.433    2.942   32.887   26.245    1.207    6.995 
 3311   31.981    2.456    2.943   32.902   26.256    1.114    6.943 
 3314   32.155    2.466    2.959   33.006   26.338    1.068    6.816 
 3315   32.328    2.466    2.959   33.006   26.338    1.045    6.766 
 3317   32.502    2.433    2.959   33.039   26.367    1.045    6.667 
 3318   32.676    2.433    2.959   33.039   26.368    1.045    6.642 
 3319   32.849    2.433    2.959   33.039   26.368    0.998    6.593 
 3321   33.023    2.433    2.959   33.039   26.368    0.975    6.448 
 3322   33.197    2.433    2.959   33.039   26.368    0.975    6.401 
 3323   33.370    2.426    2.959   33.039   26.368    0.975    6.354 
 3324   33.544    2.426    2.959   33.039   26.368    0.905    6.260 
 3326   33.718    2.426    2.959   33.040   26.368    0.905    6.191 
 3327   33.891    2.426    2.959   33.040   26.368    0.882    6.146 
 3329   34.065    2.426    2.959   33.046   26.368    0.882    6.033 
 3330   34.238    2.426    2.959   33.046   26.368    0.882    6.011 
 3332   34.412    2.426    2.959   33.046   26.368    0.882    5.989 
 3334   34.586    2.540    2.962   33.046   26.368    0.882    5.901 
 3335   34.759    2.575    2.968   33.046   26.368    0.882    5.901 
 3338   34.933    2.584    2.971   33.046   26.368    0.859    5.836 
 3339   35.107    2.589    2.971   33.046   26.368    0.859    5.793 
 3342   35.280    2.895    2.999   33.052   26.368    0.859    5.708 
 3344   35.454    2.920    3.002   33.062   26.368    0.859    5.666 
 3347   35.627    2.923    3.004   33.072   26.368    0.859    5.603 
 3351   35.801    2.940    3.005   33.078   26.373    0.859    5.562 
 3352   35.975    2.946    3.005   33.080   26.373    0.882    5.521 
 3354   36.148    2.985    3.009   33.083   26.373    0.859    5.460 
 3355   36.322    2.985    3.012   33.116   26.383    0.859    5.400 
 3357   36.496    2.985    3.012   33.116   26.383    0.859    5.340 
 3358   36.669    2.985    3.012   33.116   26.383    0.859    5.301 
 3360   36.843    2.985    3.012   33.116   26.383    0.859    5.204 
 3361   37.017    2.985    3.012   33.116   26.383    0.859    5.165 
 3363   37.190    2.985    3.012   33.117   26.383    0.882    5.108 
 3364   37.364    2.985    3.012   33.117   26.383    0.882    5.071 
 3366   37.537    2.959    3.011   33.129   26.395    0.882    5.015 
 3367   37.711    2.937    3.009   33.131   26.398    0.905    4.978 
 3369   37.885    2.864    3.005   33.131   26.405    0.882    4.905 
 3370   38.058    2.793    3.000   33.142   26.420    0.905    4.905 
 3372   38.232    2.674    2.989   33.145   26.432    0.905    4.833 
 3373   38.406    2.636    2.985   33.146   26.436    0.928    4.797 
 3376   38.579    2.521    2.975   33.149   26.448    0.975    4.762 
 3378   38.753    2.403    2.966   33.153   26.461    0.975    4.709 
 3380   38.926    2.340    2.960   33.153   26.466    0.975    4.657 
 3381   39.100    2.285    2.956   33.153   26.470    0.905    4.640 
 3383   39.274    2.188    2.948   33.153   26.478    0.905    4.589 
 3385   39.447    2.050    2.936   33.153   26.488    0.905    4.505 
 3387   39.621    1.913    2.923   33.153   26.498    0.882    4.455 
 3388   39.795    1.775    2.916   33.149   26.506    0.882    4.406 
 3389   39.968    1.602    2.900   33.147   26.516    0.882    4.373 
 3390   40.142    1.448    2.889   33.146   26.526    0.882    4.325 
 3392   40.315    1.115    2.859   33.145   26.527    0.859    4.246 
 3393   40.489    0.957    2.848   33.145   26.529    0.859    4.199 
 3394   40.663    0.898    2.839   33.137   26.530    0.859    4.168 
 3395   40.836    0.780    2.830   33.130   26.530    0.836    4.122 
 3396   41.010    0.716    2.822   33.111   26.530    0.859    4.092 
 3397   41.184    0.678    2.818   33.100   26.530    0.836    4.047 
 3399   41.357    0.584    2.810   33.100   26.530    0.836    3.973 
 3400   41.531    0.548    2.807   33.099   26.530    0.812    3.929 
 3402   41.878    0.460    2.800   33.097   26.530    0.836    3.871 
 3405   42.052    0.047    2.766   33.096   26.530    0.812    3.786 
 3406   42.225    0.047    2.762   33.046   26.530    0.812    3.758 
 3409   42.399   -0.002    2.758   33.046   26.529    0.812    3.744 
 3415   42.573   -0.049    2.754   33.044   26.527    0.812    3.730 
 3425   42.746   -0.083    2.750   33.028   26.518    0.719    3.717 
 3427   42.920   -0.107    2.746   33.010   26.510    0.743    3.689 
 3430   43.267   -0.202    2.739   33.010   26.510    0.696    3.635 
 3432   43.441   -0.202    2.739   33.010   26.510    0.673    3.569 
 3433   43.614   -0.202    2.739   33.010   26.510    0.673    3.542 
 3435   43.788   -0.202    2.739   33.010   26.510    0.650    3.490 
 3436   43.962   -0.202    2.739   33.010   26.510    0.627    3.465 
 3437   44.135   -0.202    2.739   33.010   26.510    0.627    3.439 
 3438   44.309   -0.202    2.739   33.010   26.510    0.627    3.401 
 3439   44.482   -0.202    2.739   33.010   26.510    0.627    3.376 
 3440   44.656   -0.176    2.740   33.010   26.510    0.627    3.351 
 3441   44.830   -0.123    2.743   33.010   26.510    0.603    3.314 
 3442   45.003   -0.119    2.747   33.023   26.516    0.603    3.302 
 3443   45.177   -0.119    2.747   33.025   26.517    0.603    3.278 
 3444   45.351   -0.119    2.747   33.025   26.517    0.603    3.241 
 3446   45.698   -0.119    2.747   33.025   26.517    0.557    3.182 
 3448   45.871   -0.119    2.747   33.025   26.517    0.534    3.147 
 3449   46.045   -0.119    2.747   33.025   26.518    0.534    3.112 
 3450   46.219   -0.119    2.747   33.025   26.518    0.534    3.112 
 3452   46.392   -0.119    2.747   33.025   26.518    0.534    3.078 
 3454   46.566   -0.128    2.747   33.025   26.518    0.534    3.044 
 3455   46.740   -0.130    2.746   33.026   26.519    0.534    3.033 
 3459   46.913   -0.140    2.746   33.026   26.519    0.487    2.999 
 3461   47.087   -0.146    2.745   33.027   26.520    0.487    2.977 
 3464   47.260   -0.161    2.744   33.030   26.523    0.487    2.966 
 3465   47.434   -0.165    2.743   33.034   26.527    0.487    2.944 
 3467   47.608   -0.182    2.742   33.034   26.528    0.487    2.923 
 3469   47.781   -0.252    2.739   33.034   26.531    0.487    2.901 
 3470   47.955   -0.297    2.735   33.034   26.533    0.487    2.880 
 3473   48.129   -0.458    2.722   33.034   26.536    0.441    2.817 
 3474   48.302   -0.458    2.722   33.034   26.536    0.441    2.817 
 3476   48.476   -0.458    2.722   33.034   26.539    0.441    2.786 
 3477   48.649   -0.458    2.722   33.034   26.539    0.441    2.765 
 3479   48.823   -0.458    2.722   33.030   26.539    0.441    2.734 
 3480   48.997   -0.458    2.722   33.030   26.539    0.441    2.714 
 3482   49.170   -0.458    2.722   33.040   26.539    0.441    2.684 
 3483   49.344   -0.458    2.722   33.040   26.539    0.464    2.665 
 3485   49.518   -0.406    2.724   33.040   26.539    0.441    2.645 
 3486   49.691   -0.403    2.724   33.038   26.539    0.441    2.625 
 3489   49.865   -0.402    2.724   33.038   26.539    0.441    2.587 
 3491   50.038   -0.401    2.724   33.038   26.536    0.464    2.577 
