NAFC_Y2K_HEADER
39673009  49 38.83 -047  1.71 2006-06-12 10:55 2354 S0281 009 V  stn 9         1
39673009 002706  8.00 A 08 #PTCSMFL------------            D 000 0000 0506 000 4
39673009 9 19 20 42 1008.0 009.5 009.0 04 03 19 04 04                          8
-- CHANNEL STATS -->
# span     scan =   3114.000,  8274.000
# span     pres =      0.725,   506.546
# span     temp =      3.911,     9.393
# span     cond =      3.214,     3.672
# span      sal =     34.174,    34.911
# span     sigt =     26.409,    27.698
# span     flor =      0.278,     9.246
# span      par =      0.905,   104.410
-- END --
-- HISTORY --> Thu Jun 22 14:22:54 2006
>SELECT_PROBE S
>READ # (DP) T C L F scan pres temp cond par flor
>STABILIZE_RESTRICT USING= pres 10.0 5 
>RESTRICT USING= pres 0.0 2000.0
>RESTRICT USING= cond 2.0 5.0
>RESTRICT USING= temp -2.0 20.0
>RESTRICT USING= scan 500.0 30000.0
>MEDIANFILTER pres 21 1
>MEDIANFILTER temp 21 1
>MEDIANFILTER cond 21 1
>MEDIANFILTER flor 21 1
>MEDIANFILTER par 21 1
>SELECT_DN USING= pres
>SALINITY PRESSURE=pres CONDUCTIVITY=cond TEMPERATURE=temp RESULT=sal
>RESTRICT USING= sal 29.0 36.0
>MEDIANFILTER sal 21 1
>SIGMAT SALINITY=sal TEMPERATURE=temp RESULT=sigt
>MEDIANFILTER sigt 21 1
>HISTORY_ON
>WRITEFILE .p???? scan pres temp cond sal sigt flor par
-- END --
 scan     pres     temp     cond      sal     sigt     flor      par 
-- DATA --
 3114    0.725    9.393    3.672   34.175   26.409    3.554  103.640 
 3117    0.899    9.393    3.672   34.175   26.409    3.693  104.410 
 3124    1.072    9.393    3.672   34.175   26.409    3.763  100.990 
 3128    1.246    9.393    3.672   34.175   26.409    3.786   95.894 
 3129    1.420    9.393    3.672   34.175   26.409    3.786   93.790 
 3132    1.593    9.393    3.672   34.175   26.409    3.786   86.462 
 3134    1.767    9.393    3.672   34.175   26.409    3.786   86.143 
 3138    1.941    9.393    3.672   34.175   26.409    3.786   83.942 
 3157    2.114    9.392    3.672   34.176   26.410    3.763   81.194 
 3162    2.288    9.392    3.672   34.176   26.410    3.763   80.894 
 3169    2.462    9.392    3.672   34.175   26.410    3.856   79.119 
 3173    2.635    9.392    3.672   34.175   26.410    3.902   68.494 
 3176    2.809    9.392    3.672   34.175   26.410    3.925   62.677 
 3178    2.982    9.392    3.672   34.176   26.410    3.925   60.850 
 3180    3.156    9.392    3.672   34.176   26.410    3.925   60.850 
 3181    3.330    9.392    3.672   34.176   26.410    3.925   60.850 
 3183    3.503    9.391    3.672   34.176   26.410    3.925   59.515 
 3185    3.677    9.391    3.672   34.176   26.410    3.949   57.994 
 3186    3.851    9.391    3.672   34.176   26.410    3.972   56.512 
 3188    4.024    9.391    3.672   34.176   26.410    3.995   54.259 
 3191    4.198    9.391    3.672   34.176   26.410    3.995   51.904 
 3194    4.372    9.391    3.672   34.175   26.410    3.995   49.468 
 3198    4.545    9.391    3.672   34.175   26.410    3.972   46.972 
 3205    4.719    9.390    3.672   34.175   26.410    4.018   45.772 
 3211    4.893    9.391    3.672   34.175   26.410    3.949   45.435 
 3213    5.066    9.391    3.672   34.175   26.410    3.949   45.100 
 3235    5.240    9.391    3.672   34.175   26.410    4.042   42.983 
 3240    5.414    9.391    3.672   34.175   26.410    4.065   42.040 
 3246    5.587    9.391    3.672   34.175   26.410    4.135   39.333 
 3251    5.761    9.390    3.672   34.175   26.410    4.135   38.613 
 3259    5.935    9.390    3.672   34.175   26.410    4.158   37.073 
 3274    6.108    9.391    3.672   34.175   26.409    4.088   35.993 
 3283    6.282    9.391    3.672   34.175   26.409    4.158   35.993 
 3290    6.456    9.391    3.672   34.175   26.409    4.204   35.596 
 3295    6.629    9.391    3.672   34.175   26.409    4.274   34.431 
 3297    6.803    9.391    3.672   34.175   26.409    4.274   33.675 
 3299    6.977    9.391    3.672   34.175   26.409    4.274   32.573 
 3302    7.150    9.391    3.672   34.175   26.409    4.251   31.390 
 3304    7.324    9.391    3.672   34.175   26.409    4.181   30.588 
 3306    7.497    9.391    3.672   34.174   26.409    4.135   29.697 
 3307    7.671    9.391    3.672   34.174   26.409    4.135   29.261 
 3310    7.845    9.391    3.672   34.174   26.409    4.111   27.784 
 3312    8.018    9.391    3.672   34.174   26.409    4.111   26.875 
 3315    8.192    9.390    3.672   34.174   26.409    4.111   25.708 
 3318    8.366    9.390    3.672   34.174   26.409    4.135   24.867 
 3321    8.539    9.390    3.672   34.174   26.409    4.135   24.684 
 3345    8.713    9.390    3.672   34.175   26.409    4.135   24.411 
 3347    8.887    9.390    3.672   34.175   26.409    4.158   23.788 
 3349    9.060    9.390    3.672   34.175   26.409    4.158   23.266 
 3351    9.234    9.390    3.672   34.175   26.409    4.158   22.671 
 3353    9.408    9.389    3.672   34.175   26.410    4.181   22.010 
 3354    9.581    9.388    3.672   34.176   26.411    4.204   21.527 
 3355    9.755    9.388    3.672   34.176   26.411    4.204   21.133 
 3356    9.929    9.387    3.672   34.177   26.411    4.204   20.746 
 3358   10.102    9.386    3.672   34.177   26.412    4.227   19.993 
 3359   10.276    9.386    3.672   34.177   26.412    4.251   19.554 
 3360   10.450    9.386    3.672   34.177   26.412    4.251   19.054 
 3362   10.797    9.386    3.672   34.178   26.412    4.251   18.227 
 3364   10.971    9.386    3.672   34.178   26.412    4.297   17.631 
 3365   11.144    9.386    3.672   34.178   26.412    4.297   17.372 
 3368   11.318    9.385    3.672   34.178   26.413    4.297   16.074 
 3369   11.491    9.385    3.672   34.178   26.413    4.297   15.896 
 3371   11.665    9.380    3.672   34.183   26.417    4.297   15.548 
 3376   11.839    9.378    3.672   34.185   26.419    4.274   14.818 
 3382   12.012    9.377    3.672   34.185   26.419    4.181   14.493 
 3390   12.186    9.377    3.672   34.185   26.419    4.297   14.122 
 3393   12.360    9.377    3.672   34.185   26.419    4.344   13.813 
 3396   12.533    9.377    3.672   34.185   26.419    4.483   13.311 
 3398   12.707    9.377    3.672   34.185   26.419    4.530   12.923 
 3399   12.881    9.377    3.672   34.185   26.420    4.530   12.828 
 3400   13.054    9.377    3.672   34.185   26.420    4.553   12.640 
 3401   13.228    9.377    3.672   34.185   26.420    4.576   12.408 
 3402   13.402    9.377    3.672   34.185   26.420    4.599   12.226 
 3404   13.749    9.377    3.672   34.185   26.420    4.646   11.609 
 3405   13.923    9.377    3.672   34.185   26.420    4.646   11.312 
 3406   14.096    9.377    3.672   34.185   26.420    4.646   11.105 
 3407   14.270    9.376    3.672   34.185   26.420    4.646   10.781 
 3408   14.443    9.373    3.672   34.188   26.423    4.669   10.545 
 3409   14.617    9.368    3.672   34.193   26.427    4.669   10.313 
 3410   14.791    9.361    3.672   34.199   26.433    4.785   10.050 
 3412   14.964    9.358    3.672   34.202   26.436    4.855    9.614 
 3413   15.138    9.354    3.672   34.206   26.440    4.878    9.403 
 3414   15.312    9.353    3.672   34.207   26.441    4.878    9.196 
 3415   15.485    9.350    3.672   34.210   26.443    4.878    9.028 
 3416   15.659    9.347    3.672   34.212   26.446    4.901    8.830 
 3418   16.006    9.347    3.672   34.212   26.446    4.901    8.509 
 3421   16.180    9.346    3.672   34.213   26.447    4.901    8.080 
 3423   16.354    9.344    3.672   34.215   26.448    4.878    7.815 
 3425   16.527    9.344    3.672   34.215   26.448    4.878    7.616 
 3430   16.701    9.344    3.672   34.215   26.448    4.832    7.258 
 3437   16.875    9.344    3.672   34.215   26.448    4.832    6.995 
 3441   17.048    9.344    3.672   34.215   26.448    4.948    6.816 
 3445   17.222    9.343    3.672   34.215   26.448    5.041    6.617 
 3447   17.395    9.343    3.672   34.215   26.448    5.110    6.496 
 3449   17.743    9.343    3.672   34.215   26.448    5.134    6.401 
 3451   17.916    9.342    3.672   34.215   26.449    5.157    6.307 
 3452   18.090    9.342    3.672   34.215   26.449    5.157    6.260 
 3453   18.264    9.340    3.672   34.215   26.449    5.157    6.168 
 3454   18.437    9.340    3.672   34.215   26.449    5.203    6.056 
 3455   18.611    9.340    3.672   34.215   26.449    5.227    5.967 
 3456   18.785    9.337    3.671   34.216   26.450    5.227    5.901 
 3457   18.958    9.337    3.671   34.216   26.450    5.273    5.793 
 3458   19.132    9.337    3.671   34.216   26.450    5.296    5.687 
 3459   19.479    9.336    3.671   34.216   26.451    5.319    5.562 
 3461   19.826    9.321    3.671   34.218   26.454    5.343    5.301 
 3462   20.000    9.314    3.670   34.218   26.455    5.343    5.204 
 3463   20.174    9.312    3.670   34.218   26.456    5.366    5.071 
 3464   20.347    9.310    3.669   34.218   26.456    5.389    4.941 
 3465   20.521    9.310    3.669   34.218   26.456    5.436    4.833 
 3466   20.695    9.308    3.669   34.221   26.459    5.436    4.779 
 3467   20.868    9.306    3.669   34.222   26.460    5.459    4.657 
 3468   21.042    9.306    3.669   34.223   26.461    5.505    4.555 
 3469   21.216    9.295    3.669   34.225   26.464    5.552    4.455 
 3470   21.389    9.280    3.667   34.225   26.467    5.598    4.341 
 3471   21.563    9.261    3.666   34.225   26.470    5.738    4.230 
 3472   21.737    9.255    3.665   34.225   26.471    5.784    4.137 
 3473   21.910    9.254    3.665   34.226   26.472    5.807    4.047 
 3474   22.084    9.251    3.665   34.226   26.472    5.807    4.017 
 3475   22.257    9.243    3.664   34.229   26.475    5.807    3.943 
 3478   22.431    9.211    3.662   34.229   26.481    5.900    3.772 
 3479   22.605    9.208    3.662   34.230   26.482    5.900    3.717 
 3481   22.778    9.206    3.662   34.231   26.483    5.900    3.608 
 3486   22.952    9.206    3.662   34.234   26.485    5.807    3.452 
 3495   23.126    9.216    3.662   34.236   26.486    5.807    3.302 
 3501   23.299    9.222    3.662   34.239   26.487    5.947    3.206 
 3504   23.647    9.222    3.662   34.240   26.488    6.411    3.147 
 3506   23.820    9.212    3.662   34.240   26.490    6.458    3.089 
 3507   23.994    9.180    3.661   34.254   26.506    6.621    3.055 
 3509   24.168    9.140    3.658   34.262   26.518    6.853    2.999 
 3510   24.341    9.124    3.657   34.266   26.524    7.039    2.988 
 3511   24.515    9.113    3.656   34.267   26.526    7.108    2.977 
 3512   24.688    9.104    3.656   34.275   26.534    7.248    2.944 
 3513   25.036    9.092    3.655   34.276   26.537    7.248    2.901 
 3514   25.209    9.066    3.654   34.279   26.543    7.364    2.880 
 3515   25.383    9.056    3.652   34.283   26.548    7.387    2.817 
 3516   25.557    9.052    3.652   34.287   26.552    7.434    2.786 
 3517   25.904    9.048    3.652   34.290   26.555    7.527    2.724 
 3518   26.078    9.044    3.652   34.291   26.556    7.689    2.655 
 3519   26.251    9.041    3.652   34.293   26.558    7.852    2.596 
 3520   26.425    9.035    3.652   34.299   26.564    7.945    2.539 
 3521   26.598    8.997    3.649   34.304   26.574    7.991    2.466 
 3522   26.772    8.964    3.646   34.305   26.580    8.014    2.429 
 3523   26.946    8.896    3.642   34.309   26.594    8.131    2.376 
 3524   27.293    8.839    3.636   34.309   26.603    8.224    2.332 
 3526   27.467    8.750    3.628   34.309   26.617    8.897    2.248 
 3527   27.640    8.721    3.625   34.311   26.623    8.920    2.198 
 3528   27.814    8.703    3.623   34.311   26.626    8.920    2.158 
 3529   27.988    8.667    3.620   34.313   26.633    8.920    2.126 
 3530   28.161    8.610    3.616   34.315   26.644    8.920    2.095 
 3533   28.335    8.570    3.611   34.317   26.651    9.176    2.034 
 3534   28.508    8.568    3.610   34.317   26.652    9.222    2.019 
 3537   28.682    8.565    3.610   34.318   26.652    9.246    1.953 
 3540   28.856    8.565    3.610   34.318   26.652    9.222    1.924 
 3553   29.029    8.571    3.609   34.318   26.653    9.246    1.814 
 3555   29.203    8.571    3.609   34.318   26.653    9.222    1.801 
 3558   29.377    8.541    3.608   34.318   26.657    9.153    1.768 
 3559   29.550    8.502    3.606   34.318   26.663    9.037    1.768 
 3561   29.898    8.408    3.599   34.319   26.677    9.013    1.755 
 3563   30.071    8.372    3.593   34.322   26.686    8.967    1.735 
 3564   30.245    8.368    3.593   34.322   26.686    8.828    1.735 
 3566   30.592    8.366    3.592   34.330   26.693    8.177    1.722 
 3567   30.766    8.361    3.592   34.347   26.707    7.805    1.716 
 3569   31.113    8.312    3.591   34.355   26.721    7.712    1.703 
 3570   31.287    8.184    3.581   34.374   26.755    7.457    1.697 
 3571   31.460    8.078    3.573   34.376   26.773    6.760    1.691 
 3573   31.808    7.840    3.552   34.378   26.809    4.344    1.654 
 3574   31.981    7.824    3.549   34.378   26.812    3.600    1.641 
 3575   32.155    7.819    3.548   34.383   26.816    3.484    1.623 
 3576   32.328    7.814    3.548   34.384   26.818    3.275    1.612 
 3577   32.502    7.808    3.547   34.392   26.825    3.205    1.588 
 3578   32.676    7.799    3.546   34.398   26.831    3.136    1.588 
 3579   32.849    7.775    3.546   34.399   26.836    3.066    1.570 
 3580   33.023    7.708    3.541   34.400   26.846    3.019    1.564 
 3581   33.197    7.648    3.535   34.401   26.855    2.996    1.553 
 3582   33.370    7.627    3.533   34.405   26.862    2.880    1.547 
 3584   33.718    7.601    3.530   34.406   26.866    2.625    1.530 
 3585   33.891    7.589    3.529   34.412   26.873    2.601    1.513 
 3587   34.065    7.493    3.523   34.419   26.892    2.485    1.508 
 3588   34.238    7.444    3.518   34.424   26.903    2.439    1.502 
 3589   34.412    7.416    3.515   34.427   26.909    2.392    1.497 
 3591   34.586    7.315    3.507   34.429   26.926    2.346    1.486 
 3593   34.759    7.195    3.497   34.430   26.943    2.253    1.480 
 3594   34.933    7.153    3.494   34.431   26.949    2.206    1.475 
 3596   35.107    7.122    3.490   34.432   26.954    2.206    1.469 
 3598   35.280    7.115    3.489   34.432   26.955    2.090    1.458 
 3600   35.454    7.102    3.488   34.433   26.958    2.090    1.453 
 3602   35.627    7.093    3.487   34.434   26.960    2.067    1.442 
 3605   35.801    7.083    3.486   34.434   26.962    2.020    1.437 
 3607   35.975    7.067    3.484   34.436   26.965    1.974    1.432 
 3608   36.148    7.064    3.484   34.438   26.968    1.951    1.426 
 3610   36.322    7.063    3.484   34.442   26.971    1.881    1.416 
 3612   36.496    7.040    3.482   34.446   26.977    1.858    1.416 
 3615   36.669    6.850    3.468   34.451   27.007    1.765    1.405 
 3616   36.843    6.838    3.465   34.454   27.011    1.742    1.405 
 3618   37.017    6.819    3.464   34.456   27.015    1.742    1.395 
 3620   37.190    6.817    3.464   34.456   27.016    1.718    1.390 
 3622   37.364    6.817    3.464   34.456   27.016    1.672    1.390 
 3625   37.537    6.817    3.464   34.456   27.016    1.602    1.380 
 3626   37.711    6.817    3.464   34.467   27.024    1.602    1.375 
 3628   37.885    6.817    3.465   34.467   27.024    1.602    1.370 
 3629   38.058    6.817    3.465   34.468   27.025    1.602    1.370 
 3631   38.232    6.817    3.466   34.477   27.032    1.533    1.359 
 3632   38.406    6.817    3.466   34.477   27.032    1.463    1.359 
 3634   38.579    6.817    3.466   34.478   27.032    1.463    1.359 
 3635   38.753    6.817    3.466   34.478   27.033    1.463    1.354 
 3636   38.926    6.817    3.466   34.478   27.033    1.440    1.354 
 3637   39.100    6.817    3.466   34.478   27.033    1.440    1.354 
 3638   39.274    6.817    3.466   34.478   27.033    1.440    1.349 
 3640   39.447    6.814    3.466   34.479   27.034    1.440    1.349 
 3641   39.621    6.813    3.466   34.480   27.035    1.440    1.349 
 3642   39.795    6.812    3.466   34.481   27.036    1.440    1.344 
 3643   39.968    6.812    3.466   34.482   27.036    1.440    1.339 
 3644   40.142    6.811    3.466   34.482   27.037    1.440    1.339 
 3645   40.315    6.811    3.466   34.482   27.037    1.440    1.334 
 3646   40.489    6.810    3.466   34.483   27.038    1.440    1.334 
 3648   40.663    6.801    3.465   34.483   27.039    1.440    1.330 
 3649   40.836    6.770    3.464   34.484   27.044    1.463    1.330 
 3651   41.010    6.764    3.462   34.486   27.046    1.463    1.325 
 3652   41.184    6.759    3.461   34.490   27.051    1.463    1.325 
 3653   41.357    6.748    3.461   34.492   27.053    1.463    1.320 
 3655   41.531    6.723    3.460   34.494   27.058    1.486    1.320 
 3658   41.704    6.697    3.457   34.494   27.062    1.509    1.315 
 3659   41.878    6.697    3.457   34.494   27.062    1.509    1.315 
 3661   42.052    6.691    3.456   34.494   27.062    1.509    1.315 
 3663   42.225    6.689    3.456   34.496   27.065    1.509    1.310 
 3665   42.399    6.642    3.454   34.497   27.071    1.486    1.310 
 3667   42.573    6.565    3.447   34.497   27.082    1.486    1.305 
 3669   42.746    6.287    3.423   34.497   27.119    1.486    1.305 
 3671   42.920    6.278    3.419   34.497   27.120    1.486    1.300 
 3672   43.093    6.275    3.419   34.500   27.122    1.393    1.300 
 3674   43.267    6.267    3.418   34.504   27.126    1.370    1.300 
 3675   43.441    6.264    3.417   34.504   27.127    1.370    1.296 
 3677   43.614    6.244    3.415   34.504   27.129    1.347    1.291 
 3678   43.788    6.238    3.415   34.504   27.130    1.300    1.291 
 3680   43.962    6.199    3.414   34.504   27.135    1.277    1.286 
 3683   44.135    6.160    3.409   34.504   27.140    1.277    1.281 
 3684   44.309    6.140    3.408   34.502   27.142    1.277    1.281 
 3685   44.482    6.123    3.406   34.500   27.142    1.254    1.281 
 3687   44.656    6.071    3.402   34.497   27.146    1.277    1.272 
 3689   44.830    5.892    3.388   34.496   27.169    1.230    1.267 
 3690   45.003    5.857    3.382   34.496   27.173    1.207    1.267 
 3691   45.177    5.808    3.380   34.492   27.176    1.207    1.263 
 3692   45.351    5.784    3.375   34.492   27.178    1.230    1.263 
 3694   45.524    5.779    3.374   34.492   27.179    1.207    1.258 
 3696   45.698    5.778    3.373   34.496   27.182    1.207    1.258 
 3697   45.871    5.777    3.373   34.496   27.182    1.207    1.258 
 3699   46.045    5.773    3.372   34.496   27.183    1.207    1.258 
 3701   46.219    5.767    3.372   34.496   27.183    1.184    1.253 
 3702   46.392    5.753    3.371   34.496   27.184    1.184    1.253 
 3705   46.566    5.732    3.368   34.495   27.184    1.184    1.253 
 3706   46.740    5.727    3.368   34.488   27.185    1.184    1.253 
 3708   46.913    5.713    3.367   34.488   27.186    1.184    1.253 
 3710   47.087    5.706    3.366   34.488   27.188    1.184    1.249 
 3712   47.260    5.678    3.364   34.488   27.189    1.138    1.249 
 3714   47.434    5.642    3.362   34.488   27.193    1.114    1.249 
 3716   47.608    5.569    3.357   34.491   27.204    1.068    1.249 
 3718   47.781    5.500    3.350   34.493   27.214    1.045    1.249 
 3719   47.955    5.455    3.347   34.493   27.220    1.045    1.249 
 3720   48.129    5.408    3.342   34.493   27.225    1.045    1.244 
 3721   48.302    5.389    3.339   34.493   27.228    1.045    1.244 
 3722   48.476    5.385    3.338   34.493   27.228    1.045    1.244 
 3724   48.649    5.333    3.334   34.493   27.234    0.998    1.244 
 3725   48.823    5.304    3.331   34.493   27.238    0.998    1.244 
 3727   48.997    5.277    3.329   34.493   27.241    0.998    1.244 
 3728   49.170    5.257    3.327   34.493   27.244    0.975    1.244 
