NAFC_Y2K_HEADER
39673020  50 34.48 -052  8.29 2006-06-15 04:00 0209 S0281 020 V   stn 20       1
39673020 001163  8.00 A 08 #PTCSMFL------------            D 000 0000 0208 000 4
39673020 9 20 08 81 1010.5 007.5 007.5 04 01 20 07 02                          8
-- CHANNEL STATS -->
# span     scan =   3213.000,  5332.000
# span     pres =      0.378,   208.672
# span     temp =     -0.969,     6.062
# span     cond =      2.694,     3.242
# span      sal =     32.727,    34.465
# span     sigt =     25.749,    27.473
# span     flor =      0.324,     1.277
# span      par =      0.932,     1.359
-- END --
-- HISTORY --> Thu Jun 22 14:23:16 2006
>SELECT_PROBE S
>READ # (DP) T C L F scan pres temp cond par flor
>STABILIZE_RESTRICT USING= pres 10.0 5 
>RESTRICT USING= pres 0.0 2000.0
>RESTRICT USING= cond 2.0 5.0
>RESTRICT USING= temp -2.0 20.0
>RESTRICT USING= scan 500.0 30000.0
>MEDIANFILTER pres 21 1
>MEDIANFILTER temp 21 1
>MEDIANFILTER cond 21 1
>MEDIANFILTER flor 21 1
>MEDIANFILTER par 21 1
>SELECT_DN USING= pres
>SALINITY PRESSURE=pres CONDUCTIVITY=cond TEMPERATURE=temp RESULT=sal
>RESTRICT USING= sal 29.0 36.0
>MEDIANFILTER sal 21 1
>SIGMAT SALINITY=sal TEMPERATURE=temp RESULT=sigt
>MEDIANFILTER sigt 21 1
>HISTORY_ON
>WRITEFILE .p???? scan pres temp cond sal sigt flor par
-- END --
 scan     pres     temp     cond      sal     sigt     flor      par 
-- DATA --
 3213    0.378    6.062    3.240   32.727   25.749    0.696    1.359 
 3222    0.551    6.061    3.240   32.728   25.750    0.766    1.286 
 3225    0.725    6.061    3.240   32.728   25.750    0.627    1.253 
 3226    0.899    6.061    3.240   32.728   25.750    0.650    1.253 
 3228    1.072    6.061    3.240   32.727   25.750    0.627    1.212 
 3229    1.246    6.061    3.240   32.727   25.750    0.627    1.208 
 3230    1.420    6.061    3.240   32.727   25.750    0.627    1.194 
 3232    1.593    6.061    3.240   32.727   25.750    0.627    1.194 
 3234    1.767    6.061    3.240   32.727   25.750    0.627    1.190 
 3235    1.941    6.061    3.240   32.727   25.750    0.627    1.190 
 3237    2.114    6.061    3.240   32.727   25.750    0.627    1.177 
 3238    2.288    6.061    3.240   32.727   25.750    0.627    1.177 
 3240    2.462    6.061    3.240   32.727   25.750    0.627    1.177 
 3242    2.635    6.061    3.240   32.727   25.750    0.627    1.173 
 3244    2.809    6.061    3.240   32.727   25.750    0.650    1.173 
 3246    2.982    6.060    3.240   32.727   25.750    0.650    1.160 
 3248    3.156    6.060    3.240   32.727   25.750    0.650    1.160 
 3249    3.330    6.060    3.240   32.727   25.750    0.650    1.160 
 3251    3.503    6.060    3.240   32.727   25.750    0.650    1.151 
 3253    3.677    6.060    3.240   32.727   25.750    0.627    1.151 
 3255    3.851    6.060    3.240   32.727   25.750    0.627    1.147 
 3257    4.024    6.060    3.240   32.727   25.750    0.627    1.143 
 3259    4.198    6.060    3.240   32.727   25.750    0.627    1.143 
 3260    4.372    6.060    3.240   32.728   25.750    0.627    1.143 
 3262    4.545    6.061    3.241   32.736   25.757    0.627    1.138 
 3264    4.719    6.061    3.241   32.736   25.757    0.627    1.138 
 3265    4.893    6.061    3.241   32.736   25.757    0.627    1.134 
 3266    5.066    6.061    3.241   32.736   25.757    0.627    1.134 
 3268    5.240    6.061    3.241   32.736   25.757    0.627    1.134 
 3269    5.414    6.061    3.241   32.736   25.757    0.627    1.134 
 3272    5.587    6.061    3.241   32.736   25.757    0.627    1.126 
 3273    5.761    6.061    3.241   32.736   25.757    0.627    1.126 
 3274    5.935    6.061    3.241   32.736   25.757    0.627    1.126 
 3276    6.108    6.061    3.241   32.736   25.757    0.627    1.126 
 3278    6.282    6.061    3.241   32.736   25.757    0.627    1.130 
 3279    6.456    6.061    3.241   32.736   25.757    0.650    1.130 
 3281    6.629    6.061    3.241   32.736   25.757    0.650    1.130 
 3283    6.803    6.061    3.241   32.736   25.757    0.650    1.130 
 3284    6.977    6.061    3.241   32.736   25.757    0.650    1.126 
 3286    7.150    6.061    3.241   32.736   25.757    0.650    1.126 
 3287    7.324    6.061    3.241   32.736   25.757    0.650    1.126 
 3288    7.497    6.061    3.241   32.736   25.757    0.650    1.122 
 3290    7.671    6.061    3.241   32.736   25.757    0.650    1.122 
 3292    7.845    6.061    3.241   32.736   25.757    0.650    1.109 
 3293    8.018    6.061    3.241   32.736   25.757    0.650    1.109 
 3295    8.192    6.061    3.241   32.736   25.757    0.650    1.105 
 3297    8.539    6.061    3.241   32.736   25.757    0.650    1.105 
 3300    8.713    6.060    3.241   32.736   25.757    0.650    1.105 
 3303    8.887    6.060    3.241   32.736   25.757    0.650    1.101 
 3306    9.060    6.059    3.241   32.737   25.757    0.650    1.101 
 3307    9.234    6.059    3.241   32.737   25.757    0.650    1.101 
 3311    9.408    6.058    3.241   32.737   25.758    0.650    1.109 
 3314    9.581    6.057    3.241   32.738   25.759    0.650    1.113 
 3316    9.755    6.055    3.241   32.740   25.761    0.650    1.113 
 3319    9.929    6.055    3.241   32.740   25.761    0.650    1.109 
 3320   10.102    6.054    3.241   32.741   25.761    0.650    1.105 
 3323   10.276    6.054    3.242   32.752   25.770    0.627    1.105 
 3324   10.450    6.054    3.242   32.752   25.770    0.627    1.109 
 3326   10.623    6.053    3.242   32.752   25.770    0.603    1.109 
 3328   10.797    6.053    3.242   32.752   25.770    0.603    1.109 
 3330   10.971    6.053    3.242   32.753   25.771    0.603    1.109 
 3331   11.144    6.053    3.242   32.753   25.771    0.603    1.109 
 3333   11.491    6.052    3.242   32.753   25.771    0.603    1.109 
 3336   11.665    6.050    3.242   32.753   25.771    0.603    1.109 
 3337   11.839    6.050    3.242   32.753   25.771    0.603    1.113 
 3338   12.012    6.050    3.242   32.753   25.771    0.603    1.113 
 3340   12.186    6.050    3.242   32.753   25.772    0.603    1.113 
 3342   12.360    6.042    3.241   32.754   25.773    0.603    1.117 
 3343   12.533    6.042    3.241   32.754   25.773    0.603    1.117 
 3345   12.707    6.039    3.241   32.755   25.774    0.603    1.117 
 3346   12.881    6.039    3.241   32.755   25.774    0.603    1.117 
 3348   13.054    6.036    3.241   32.755   25.775    0.603    1.117 
 3350   13.228    6.036    3.240   32.755   25.775    0.603    1.113 
 3352   13.402    6.029    3.240   32.756   25.776    0.603    1.113 
 3354   13.575    6.025    3.240   32.757   25.778    0.603    1.109 
 3356   13.749    6.024    3.240   32.757   25.778    0.603    1.113 
 3357   13.923    6.024    3.240   32.757   25.778    0.603    1.113 
 3359   14.096    6.016    3.240   32.762   25.783    0.603    1.113 
 3360   14.270    6.005    3.239   32.764   25.786    0.580    1.113 
 3362   14.443    5.995    3.238   32.765   25.787    0.580    1.109 
 3363   14.617    5.989    3.238   32.767   25.790    0.580    1.109 
 3364   14.791    5.970    3.237   32.768   25.793    0.580    1.109 
 3366   14.964    5.962    3.236   32.772   25.797    0.580    1.113 
 3367   15.138    5.950    3.235   32.772   25.799    0.580    1.109 
 3369   15.312    5.943    3.234   32.772   25.800    0.580    1.105 
 3371   15.485    5.924    3.233   32.773   25.802    0.580    1.105 
 3372   15.659    5.914    3.232   32.774   25.805    0.580    1.105 
 3374   15.833    5.903    3.231   32.774   25.806    0.580    1.105 
 3375   16.006    5.889    3.230   32.775   25.809    0.603    1.101 
 3377   16.180    5.838    3.226   32.779   25.818    0.603    1.101 
 3379   16.354    5.780    3.222   32.788   25.832    0.603    1.101 
 3381   16.527    5.742    3.219   32.790   25.838    0.603    1.101 
 3383   16.701    5.735    3.218   32.793   25.841    0.603    1.105 
 3386   16.875    5.669    3.214   32.807   25.860    0.627    1.101 
 3388   17.048    5.596    3.208   32.811   25.872    0.627    1.101 
 3391   17.222    5.498    3.201   32.812   25.885    0.627    1.097 
 3392   17.395    5.491    3.200   32.815   25.888    0.627    1.097 
 3395   17.569    5.470    3.198   32.818   25.892    0.603    1.093 
 3398   17.743    5.466    3.197   32.820   25.894    0.603    1.093 
 3399   17.916    5.463    3.197   32.821   25.895    0.603    1.093 
 3401   18.090    5.452    3.197   32.821   25.896    0.603    1.093 
 3402   18.264    5.439    3.196   32.822   25.899    0.603    1.093 
 3405   18.437    5.434    3.195   32.822   25.900    0.603    1.093 
 3406   18.611    5.434    3.195   32.823   25.900    0.603    1.093 
 3407   18.785    5.432    3.195   32.826   25.903    0.603    1.093 
 3409   18.958    5.413    3.194   32.826   25.905    0.603    1.093 
 3410   19.132    5.413    3.193   32.826   25.905    0.603    1.093 
 3411   19.306    5.408    3.193   32.826   25.906    0.603    1.093 
 3413   19.479    5.405    3.193   32.827   25.907    0.580    1.093 
 3414   19.653    5.405    3.193   32.827   25.907    0.603    1.093 
 3415   19.826    5.403    3.193   32.830   25.909    0.603    1.089 
 3417   20.000    5.199    3.185   32.892   25.982    0.603    1.089 
 3418   20.174    4.993    3.169   32.892   26.005    0.603    1.089 
 3420   20.347    4.653    3.138   32.892   26.042    0.603    1.085 
 3421   20.521    4.623    3.133   32.892   26.045    0.603    1.081 
 3422   20.695    4.614    3.131   32.892   26.046    0.603    1.081 
 3424   20.868    4.614    3.131   32.892   26.046    0.580    1.081 
 3426   21.042    4.614    3.131   32.892   26.047    0.580    1.081 
 3427   21.216    4.614    3.131   32.903   26.055    0.580    1.081 
 3429   21.389    4.614    3.131   32.903   26.055    0.580    1.081 
 3430   21.563    4.614    3.131   32.903   26.055    0.580    1.081 
 3431   21.737    4.614    3.131   32.903   26.055    0.580    1.081 
 3434   21.910    4.614    3.132   32.903   26.055    0.603    1.081 
 3435   22.084    4.614    3.132   32.903   26.055    0.603    1.081 
 3437   22.257    4.614    3.132   32.903   26.055    0.603    1.081 
 3439   22.431    4.614    3.132   32.903   26.055    0.603    1.077 
 3440   22.605    4.614    3.132   32.903   26.055    0.603    1.077 
 3442   22.778    4.614    3.132   32.903   26.055    0.650    1.081 
 3444   22.952    4.575    3.131   32.930   26.081    0.673    1.081 
 3446   23.126    4.570    3.131   32.935   26.085    0.673    1.081 
 3449   23.299    4.526    3.130   32.962   26.112    0.673    1.085 
 3450   23.473    4.507    3.128   32.963   26.114    0.673    1.085 
 3451   23.647    4.431    3.126   32.963   26.122    0.673    1.085 
 3453   23.820    4.356    3.116   32.967   26.133    0.696    1.085 
 3455   23.994    4.331    3.113   32.967   26.135    0.696    1.085 
 3457   24.168    4.287    3.111   32.967   26.141    0.696    1.085 
 3459   24.341    4.130    3.098   32.972   26.160    0.696    1.089 
 3462   24.515    4.068    3.091   32.973   26.167    0.696    1.089 
 3464   24.688    4.014    3.086   32.973   26.172    0.673    1.085 
 3465   24.862    4.005    3.086   32.973   26.173    0.673    1.085 
 3467   25.036    3.957    3.082   32.973   26.178    0.673    1.085 
 3468   25.209    3.945    3.081   32.973   26.180    0.673    1.085 
 3470   25.383    3.933    3.080   32.973   26.181    0.673    1.085 
 3472   25.557    3.914    3.079   32.973   26.183    0.650    1.081 
 3473   25.730    3.911    3.077   32.973   26.183    0.650    1.085 
 3475   25.904    3.751    3.067   32.973   26.199    0.650    1.085 
 3477   26.251    3.650    3.058   32.973   26.208    0.650    1.085 
 3479   26.425    3.578    3.051   32.973   26.215    0.650    1.085 
 3480   26.598    3.548    3.048   32.973   26.217    0.650    1.085 
 3481   26.772    3.515    3.046   32.973   26.221    0.627    1.085 
 3483   26.946    3.496    3.043   32.973   26.222    0.627    1.085 
 3484   27.119    3.493    3.043   32.973   26.222    0.627    1.085 
 3486   27.293    3.488    3.042   32.972   26.222    0.627    1.085 
 3488   27.467    3.477    3.042   32.972   26.222    0.627    1.085 
 3489   27.640    3.477    3.041   32.971   26.222    0.627    1.085 
 3490   27.814    3.474    3.041   32.972   26.222    0.627    1.085 
 3492   27.988    3.474    3.041   32.972   26.222    0.627    1.085 
 3493   28.161    3.474    3.041   32.972   26.223    0.627    1.085 
 3495   28.335    3.477    3.041   32.972   26.223    0.627    1.085 
 3497   28.508    3.490    3.042   32.972   26.223    0.627    1.085 
 3498   28.682    3.493    3.042   32.972   26.223    0.627    1.085 
 3499   28.856    3.496    3.043   32.972   26.224    0.627    1.085 
 3502   29.029    3.537    3.046   32.972   26.224    0.603    1.085 
 3503   29.203    3.553    3.049   32.973   26.224    0.627    1.081 
 3505   29.377    3.605    3.052   32.973   26.224    0.627    1.081 
 3507   29.550    3.684    3.059   32.986   26.224    0.603    1.081 
 3508   29.724    3.693    3.065   33.035   26.253    0.603    1.081 
 3509   29.898    3.693    3.066   33.046   26.262    0.603    1.081 
 3511   30.071    3.693    3.066   33.046   26.262    0.603    1.081 
 3513   30.245    3.693    3.066   33.047   26.262    0.603    1.081 
 3514   30.418    3.693    3.066   33.047   26.263    0.603    1.081 
 3516   30.592    3.693    3.066   33.047   26.263    0.603    1.081 
 3518   30.766    3.693    3.066   33.047   26.263    0.603    1.081 
 3519   30.939    3.670    3.066   33.070   26.283    0.603    1.081 
 3522   31.113    3.572    3.058   33.074   26.296    0.603    1.081 
 3523   31.287    3.537    3.056   33.084   26.307    0.603    1.081 
 3525   31.460    3.483    3.052   33.085   26.313    0.603    1.081 
 3527   31.634    3.476    3.051   33.087   26.315    0.603    1.077 
 3528   31.808    3.475    3.051   33.088   26.316    0.603    1.073 
 3530   31.981    3.448    3.049   33.091   26.321    0.603    1.073 
 3532   32.328    3.432    3.047   33.092   26.323    0.603    1.073 
 3535   32.502    3.424    3.047   33.092   26.324    0.603    1.073 
 3538   32.849    3.421    3.047   33.092   26.324    0.603    1.077 
 3540   33.023    3.418    3.047   33.093   26.325    0.603    1.077 
 3541   33.197    3.413    3.046   33.095   26.327    0.603    1.077 
 3543   33.370    3.411    3.046   33.098   26.330    0.603    1.077 
 3544   33.544    3.403    3.046   33.099   26.331    0.603    1.077 
 3546   33.718    3.283    3.041   33.101   26.344    0.603    1.077 
 3547   33.891    3.088    3.028   33.116   26.374    0.603    1.077 
 3548   34.065    2.972    3.014   33.116   26.384    0.627    1.077 
 3550   34.238    2.517    2.982   33.118   26.424    0.650    1.077 
 3552   34.412    2.477    2.969   33.119   26.427    0.673    1.077 
 3553   34.586    2.475    2.969   33.120   26.428    0.673    1.077 
 3554   34.759    2.461    2.969   33.120   26.430    0.673    1.077 
 3556   34.933    2.358    2.962   33.131   26.447    0.696    1.077 
 3557   35.107    2.339    2.962   33.133   26.450    0.719    1.077 
 3559   35.280    2.315    2.954   33.135   26.453    0.766    1.073 
 3560   35.454    2.272    2.952   33.140   26.461    0.766    1.073 
 3563   35.627    2.199    2.946   33.140   26.467    0.789    1.073 
 3566   35.801    2.121    2.939   33.135   26.468    0.859    1.073 
 3567   35.975    2.092    2.937   33.133   26.469    0.859    1.073 
 3568   36.148    2.042    2.934   33.131   26.471    0.928    1.073 
 3571   36.322    1.786    2.913   33.131   26.490    0.998    1.077 
 3572   36.496    1.723    2.907   33.131   26.494    1.045    1.077 
 3575   36.669    1.352    2.883   33.128   26.517    1.138    1.077 
 3576   36.843    1.227    2.868   33.123   26.522    1.138    1.077 
 3578   37.017    1.078    2.855   33.120   26.529    1.207    1.077 
 3579   37.190    0.955    2.847   33.120   26.537    1.254    1.077 
 3582   37.364    0.647    2.820   33.120   26.551    1.254    1.077 
 3584   37.537    0.598    2.813   33.120   26.551    1.277    1.073 
 3585   37.711    0.509    2.806   33.120   26.551    1.277    1.077 
 3587   37.885    0.474    2.801   33.105   26.551    1.254    1.073 
 3588   38.058    0.474    2.801   33.104   26.551    1.254    1.073 
 3590   38.232    0.474    2.801   33.104   26.551    1.254    1.073 
 3591   38.406    0.474    2.801   33.104   26.551    1.184    1.073 
 3593   38.579    0.474    2.801   33.104   26.551    1.138    1.073 
 3594   38.753    0.474    2.801   33.104   26.551    1.091    1.069 
 3595   38.926    0.474    2.801   33.104   26.551    1.091    1.065 
 3596   39.100    0.474    2.801   33.104   26.551    1.068    1.065 
 3597   39.274    0.474    2.801   33.104   26.551    1.045    1.069 
 3598   39.447    0.493    2.803   33.104   26.551    1.021    1.069 
 3600   39.795    0.493    2.803   33.104   26.551    0.928    1.069 
 3602   39.968    0.493    2.803   33.104   26.551    0.882    1.069 
 3603   40.142    0.493    2.803   33.104   26.551    0.882    1.069 
 3604   40.315    0.493    2.803   33.104   26.551    0.882    1.073 
 3605   40.489    0.493    2.803   33.104   26.551    0.882    1.069 
 3607   40.663    0.493    2.803   33.104   26.551    0.859    1.069 
 3608   40.836    0.493    2.803   33.105   26.551    0.812    1.065 
 3609   41.010    0.461    2.803   33.118   26.563    0.812    1.065 
 3610   41.184    0.431    2.799   33.118   26.565    0.812    1.065 
 3612   41.357    0.431    2.799   33.118   26.565    0.812    1.065 
 3614   41.704    0.431    2.799   33.118   26.565    0.812    1.061 
 3616   41.878    0.431    2.799   33.118   26.565    0.789    1.061 
 3618   42.052    0.431    2.799   33.120   26.566    0.766    1.057 
 3621   42.225    0.443    2.801   33.121   26.566    0.789    1.057 
 3622   42.399    0.445    2.801   33.121   26.567    0.789    1.057 
 3625   42.573    0.453    2.801   33.121   26.567    0.719    1.057 
 3627   42.746    0.455    2.802   33.122   26.567    0.719    1.057 
 3630   42.920    0.458    2.802   33.122   26.567    0.719    1.061 
 3634   43.093    0.462    2.802   33.122   26.567    0.719    1.065 
 3636   43.267    0.463    2.802   33.123   26.567    0.696    1.065 
 3638   43.441    0.463    2.802   33.125   26.569    0.673    1.065 
 3640   43.614    0.463    2.802   33.126   26.570    0.673    1.065 
 3643   43.788    0.463    2.802   33.127   26.571    0.673    1.065 
 3645   43.962    0.463    2.802   33.128   26.571    0.673    1.065 
 3647   44.135    0.457    2.802   33.128   26.571    0.627    1.065 
 3648   44.309    0.447    2.801   33.128   26.572    0.627    1.065 
 3650   44.482    0.425    2.800   33.130   26.575    0.603    1.065 
 3652   44.656    0.415    2.799   33.130   26.576    0.603    1.065 
 3653   44.830    0.415    2.799   33.130   26.576    0.603    1.065 
 3654   45.003    0.415    2.799   33.131   26.577    0.603    1.065 
 3656   45.177    0.414    2.799   33.133   26.578    0.603    1.061 
 3658   45.351    0.409    2.798   33.133   26.578    0.603    1.065 
 3659   45.524    0.405    2.798   33.133   26.579    0.603    1.065 
 3660   45.698    0.405    2.798   33.134   26.579    0.603    1.065 
 3661   45.871    0.404    2.798   33.134   26.579    0.603    1.065 
 3662   46.045    0.401    2.798   33.134   26.580    0.603    1.065 
 3663   46.219    0.401    2.798   33.134   26.580    0.603    1.065 
 3665   46.392    0.401    2.798   33.134   26.580    0.603    1.065 
 3666   46.740    0.401    2.798   33.134   26.580    0.603    1.061 
 3668   46.913    0.395    2.798   33.136   26.581    0.603    1.061 
 3669   47.087    0.393    2.798   33.139   26.584    0.603    1.061 
 3670   47.260    0.391    2.798   33.140   26.585    0.603    1.061 
 3671   47.434    0.387    2.797   33.142   26.587    0.603    1.061 
 3672   47.608    0.384    2.797   33.142   26.587    0.603    1.061 
